File: FTIR Data (PCL)/All Data/PCL_NaOH_PDA_3_2.CSV
3.991989e+002,0.000000e+000
4.117341e+002,0.000000e+000
4.242693e+002,0.000000e+000
4.368046e+002,0.000000e+000
4.493398e+002,0.000000e+000
4.618751e+002,0.000000e+000
4.744103e+002,0.000000e+000
4.869455e+002,0.000000e+000
4.994808e+002,0.000000e+000
5.120160e+002,0.000000e+000
5.245512e+002,0.000000e+000
5.370865e+002,0.000000e+000
5.496217e+002,8.610459e+001
5.621569e+002,8.679575e+001
5.746922e+002,7.769833e+001
5.872274e+002,7.765292e+001
5.997626e+002,8.418196e+001
6.122979e+002,8.422076e+001
6.248331e+002,8.463373e+001
6.373683e+002,8.503738e+001
6.499036e+002,8.402120e+001
6.624388e+002,8.421937e+001
6.749741e+002,8.346505e+001
6.875093e+002,8.192187e+001
7.000445e+002,7.777114e+001
7.125798e+002,7.371800e+001
7.251150e+002,6.459798e+001
7.376502e+002,7.207134e+001
7.501855e+002,8.476823e+001
7.627207e+002,8.628811e+001
7.752559e+002,8.431924e+001
7.877911e+002,8.645386e+001
8.003264e+002,8.633112e+001
8.128616e+002,8.628183e+001
8.253969e+002,8.574457e+001
8.379321e+002,7.958207e+001
8.504673e+002,8.455859e+001
8.630026e+002,8.418703e+001
8.755378e+002,8.382324e+001
8.880731e+002,8.329924e+001
9.006083e+002,8.267750e+001
9.131435e+002,8.047846e+001
9.256788e+002,7.535645e+001
9.382140e+002,7.243453e+001
9.507492e+002,6.808022e+001
9.632844e+002,5.955674e+001
9.758197e+002,7.530912e+001
9.883549e+002,7.706920e+001
1.000890e+003,7.643799e+001
1.013425e+003,7.395662e+001
1.025961e+003,6.858765e+001
1.038496e+003,5.589648e+001
1.051031e+003,5.992731e+001
1.063566e+003,6.553751e+001
1.076102e+003,7.219872e+001
1.088637e+003,6.347897e+001
1.101172e+003,5.900013e+001
1.113707e+003,6.487344e+001
1.126243e+003,6.819904e+001
1.138778e+003,5.384076e+001
1.151313e+003,3.360082e+001
1.163848e+003,2.776832e+001
1.176383e+003,3.205395e+001
1.188919e+003,3.901702e+001
1.201454e+003,6.728310e+001
1.213989e+003,7.162640e+001
1.226524e+003,6.398001e+001
1.239060e+003,4.238126e+001
1.251595e+003,7.135291e+001
1.264130e+003,7.806650e+001
1.276665e+003,7.632481e+001
1.289201e+003,6.524542e+001
1.301736e+003,7.442533e+001
1.314271e+003,8.278566e+001
1.326806e+003,8.400632e+001
1.339342e+003,8.476842e+001
1.351877e+003,7.483831e+001
1.364412e+003,6.174012e+001
1.376947e+003,7.439716e+001
1.389482e+003,8.165642e+001
1.402018e+003,8.140540e+001
1.414553e+003,7.659517e+001
1.427088e+003,8.578614e+001
1.439623e+003,8.608094e+001
1.452159e+003,8.498655e+001
1.464694e+003,7.886058e+001
1.477229e+003,8.247894e+001
1.489764e+003,9.291157e+001
1.502300e+003,9.331087e+001
1.514835e+003,9.346104e+001
1.527370e+003,9.376540e+001
1.539905e+003,9.390450e+001
1.552441e+003,9.381367e+001
1.564976e+003,9.367688e+001
1.577511e+003,9.306714e+001
1.590046e+003,9.299934e+001
1.602581e+003,9.249521e+001
1.615117e+003,9.189927e+001
1.627652e+003,9.125367e+001
1.640187e+003,9.066455e+001
1.652722e+003,9.055626e+001
1.665258e+003,8.813126e+001
1.677793e+003,8.288702e+001
1.690328e+003,7.454757e+001
1.702863e+003,6.427521e+001
1.715399e+003,3.290734e+001
1.727934e+003,3.770275e+001
1.740469e+003,6.687711e+001
1.753004e+003,9.080560e+001
1.765539e+003,9.422405e+001
1.778075e+003,9.564798e+001
1.790610e+003,9.663670e+001
1.803145e+003,9.742120e+001
1.815680e+003,9.785278e+001
1.828216e+003,9.807588e+001
1.840751e+003,9.794903e+001
1.853286e+003,9.820919e+001
1.865821e+003,9.834785e+001
1.878357e+003,9.830692e+001
1.890892e+003,9.826738e+001
1.903427e+003,9.823842e+001
1.915962e+003,9.813896e+001
1.928498e+003,9.833233e+001
1.941033e+003,9.832498e+001
1.953568e+003,9.847132e+001
1.966103e+003,9.854431e+001
1.978638e+003,9.766013e+001
1.991174e+003,9.819414e+001
2.003709e+003,9.830320e+001
2.016244e+003,9.837312e+001
2.028779e+003,9.813577e+001
2.041315e+003,9.820191e+001
2.053850e+003,9.820428e+001
2.066385e+003,9.817351e+001
2.078920e+003,9.793596e+001
2.091456e+003,9.796316e+001
2.103991e+003,9.789040e+001
2.116526e+003,9.807453e+001
2.129061e+003,9.841316e+001
2.141596e+003,9.838480e+001
2.154132e+003,9.852060e+001
2.166667e+003,9.805181e+001
2.179202e+003,9.809630e+001
2.191738e+003,9.819998e+001
2.204273e+003,9.832838e+001
2.216808e+003,9.820010e+001
2.229343e+003,9.820895e+001
2.241878e+003,9.828455e+001
2.254414e+003,9.821384e+001
2.266949e+003,9.802740e+001
2.279484e+003,9.800352e+001
2.292019e+003,9.744724e+001
2.304555e+003,9.643811e+001
2.317090e+003,9.468896e+001
2.329625e+003,9.253178e+001
2.342160e+003,9.179057e+001
2.354696e+003,9.104003e+001
2.367231e+003,9.137223e+001
2.379766e+003,9.651631e+001
2.392301e+003,9.827430e+001
2.404836e+003,9.820090e+001
2.417372e+003,9.807433e+001
2.429907e+003,9.829484e+001
2.442442e+003,9.815634e+001
2.454977e+003,9.808632e+001
2.467513e+003,9.817532e+001
2.480048e+003,9.809438e+001
2.492583e+003,9.813665e+001
2.505118e+003,9.811441e+001
2.517654e+003,9.803436e+001
2.530189e+003,9.791103e+001
2.542724e+003,9.792149e+001
2.555259e+003,9.795116e+001
2.567794e+003,9.784280e+001
2.580330e+003,9.779590e+001
2.592865e+003,9.780891e+001
2.605400e+003,9.772670e+001
2.617936e+003,9.769940e+001
2.630471e+003,9.766960e+001
2.643006e+003,9.750421e+001
2.655541e+003,9.745757e+001
2.668076e+003,9.754059e+001
2.680612e+003,9.747376e+001
2.693147e+003,9.740432e+001
2.705682e+003,9.738891e+001
2.718217e+003,9.731178e+001
2.730753e+003,9.728880e+001
2.743288e+003,9.717132e+001
2.755823e+003,9.713505e+001
2.768358e+003,9.692400e+001
2.780894e+003,9.688678e+001
2.793429e+003,9.667196e+001
2.805964e+003,9.632214e+001
2.818499e+003,9.563255e+001
2.831034e+003,9.469921e+001
2.843570e+003,9.190237e+001
2.856105e+003,8.468443e+001
2.868640e+003,8.180960e+001
2.881175e+003,8.816622e+001
2.893711e+003,8.450869e+001
2.906246e+003,8.355417e+001
2.918781e+003,7.913659e+001
2.931316e+003,7.551891e+001
2.943852e+003,7.336460e+001
2.956387e+003,7.813989e+001
2.968922e+003,8.712470e+001
2.981457e+003,9.305235e+001
2.993992e+003,9.547219e+001
3.006528e+003,9.633137e+001
3.019063e+003,9.664479e+001
3.031598e+003,9.674856e+001
3.044134e+003,9.673526e+001
3.056669e+003,9.679933e+001
3.069204e+003,9.683373e+001
3.081739e+003,9.679147e+001
3.094274e+003,9.674747e+001
3.106810e+003,9.671287e+001
3.119345e+003,9.675700e+001
3.131880e+003,9.675461e+001
3.144415e+003,9.669270e+001
3.156950e+003,9.663612e+001
3.169486e+003,9.655052e+001
3.182021e+003,9.663523e+001
3.194556e+003,9.660809e+001
3.207092e+003,9.660607e+001
3.219627e+003,9.666744e+001
3.232162e+003,9.663072e+001
3.244697e+003,9.658010e+001
3.257232e+003,9.655026e+001
3.269768e+003,9.654456e+001
3.282303e+003,9.655656e+001
3.294838e+003,9.646354e+001
3.307373e+003,9.657114e+001
3.319909e+003,9.655721e+001
3.332444e+003,9.651337e+001
3.344979e+003,9.647401e+001
3.357514e+003,9.660329e+001
3.370050e+003,9.662227e+001
3.382585e+003,9.671219e+001
3.395120e+003,9.669091e+001
3.407655e+003,9.663222e+001
3.420190e+003,9.647788e+001
3.432726e+003,9.632459e+001
3.445261e+003,9.634765e+001
3.457796e+003,9.652989e+001
3.470332e+003,9.688396e+001
3.482867e+003,9.715522e+001
3.495402e+003,9.704951e+001
3.507937e+003,9.716794e+001
3.520472e+003,9.725305e+001
3.533008e+003,9.742151e+001
3.545543e+003,9.741652e+001
3.558078e+003,9.760215e+001
3.570613e+003,9.776044e+001
3.583148e+003,9.776781e+001
3.595684e+003,9.786748e+001
3.608219e+003,9.762215e+001
3.620754e+003,9.790272e+001
3.633290e+003,9.810999e+001
3.645825e+003,9.863239e+001
3.658360e+003,9.865187e+001
3.670895e+003,9.883237e+001
3.683430e+003,9.868377e+001
3.695966e+003,9.856505e+001
3.708501e+003,9.854044e+001
3.721036e+003,9.853989e+001
3.733571e+003,9.854211e+001
3.746107e+003,9.895302e+001
3.758642e+003,9.896692e+001
3.771177e+003,9.890864e+001
3.783712e+003,9.887257e+001
3.796248e+003,9.899346e+001
3.808783e+003,9.898582e+001
3.821318e+003,9.904614e+001
3.833853e+003,9.897726e+001
3.846388e+003,9.873174e+001
3.858924e+003,9.887631e+001
3.871459e+003,9.890146e+001
3.883994e+003,9.895103e+001
3.896529e+003,9.872937e+001
3.909065e+003,9.879765e+001
3.921600e+003,9.894849e+001
3.934135e+003,9.886870e+001
3.946670e+003,9.886747e+001
3.959206e+003,9.880477e+001
3.971741e+003,9.878954e+001
3.984276e+003,9.883255e+001
3.996811e+003,9.869720e+001
4.000668e+003,0.000000e+000