File: FTIR Data (PCL)/All Data/PCL_NaOH_PDA_2_3.CSV
3.991989e+002,0.000000e+000
4.117341e+002,0.000000e+000
4.242693e+002,0.000000e+000
4.368046e+002,0.000000e+000
4.493398e+002,0.000000e+000
4.618751e+002,0.000000e+000
4.744103e+002,0.000000e+000
4.869455e+002,0.000000e+000
4.994808e+002,0.000000e+000
5.120160e+002,0.000000e+000
5.245512e+002,0.000000e+000
5.370865e+002,0.000000e+000
5.496217e+002,8.307036e+001
5.621569e+002,8.368561e+001
5.746922e+002,7.920827e+001
5.872274e+002,7.915456e+001
5.997626e+002,8.327438e+001
6.122979e+002,8.426993e+001
6.248331e+002,8.472269e+001
6.373683e+002,8.519350e+001
6.499036e+002,8.425361e+001
6.624388e+002,8.432154e+001
6.749741e+002,8.387702e+001
6.875093e+002,8.217682e+001
7.000445e+002,7.782643e+001
7.125798e+002,7.365063e+001
7.251150e+002,6.422729e+001
7.376502e+002,7.139326e+001
7.501855e+002,8.467255e+001
7.627207e+002,8.641985e+001
7.752559e+002,8.437824e+001
7.877911e+002,8.668375e+001
8.003264e+002,8.649107e+001
8.128616e+002,8.649956e+001
8.253969e+002,8.593989e+001
8.379321e+002,7.952554e+001
8.504673e+002,8.479180e+001
8.630026e+002,8.435670e+001
8.755378e+002,8.396879e+001
8.880731e+002,8.344769e+001
9.006083e+002,8.283810e+001
9.131435e+002,8.058677e+001
9.256788e+002,7.524023e+001
9.382140e+002,7.213433e+001
9.507492e+002,6.781783e+001
9.632844e+002,5.886550e+001
9.758197e+002,7.508680e+001
9.883549e+002,7.698382e+001
1.000890e+003,7.644655e+001
1.013425e+003,7.394433e+001
1.025961e+003,6.840557e+001
1.038496e+003,5.538263e+001
1.051031e+003,5.927529e+001
1.063566e+003,6.520853e+001
1.076102e+003,7.201914e+001
1.088637e+003,6.310684e+001
1.101172e+003,5.843050e+001
1.113707e+003,6.439622e+001
1.126243e+003,6.809010e+001
1.138778e+003,5.337096e+001
1.151313e+003,3.255530e+001
1.163848e+003,2.641825e+001
1.176383e+003,3.085053e+001
1.188919e+003,3.818112e+001
1.201454e+003,6.652526e+001
1.213989e+003,7.107199e+001
1.226524e+003,6.330412e+001
1.239060e+003,4.126414e+001
1.251595e+003,7.074781e+001
1.264130e+003,7.764311e+001
1.276665e+003,7.590952e+001
1.289201e+003,6.449551e+001
1.301736e+003,7.385713e+001
1.314271e+003,8.247592e+001
1.326806e+003,8.373734e+001
1.339342e+003,8.459770e+001
1.351877e+003,7.435387e+001
1.364412e+003,6.086712e+001
1.376947e+003,7.388059e+001
1.389482e+003,8.132272e+001
1.402018e+003,8.098769e+001
1.414553e+003,7.604636e+001
1.427088e+003,8.559588e+001
1.439623e+003,8.592624e+001
1.452159e+003,8.480335e+001
1.464694e+003,7.867429e+001
1.477229e+003,8.225140e+001
1.489764e+003,9.294678e+001
1.502300e+003,9.326688e+001
1.514835e+003,9.344647e+001
1.527370e+003,9.387400e+001
1.539905e+003,9.446385e+001
1.552441e+003,9.398260e+001
1.564976e+003,9.385832e+001
1.577511e+003,9.356809e+001
1.590046e+003,9.301231e+001
1.602581e+003,9.240192e+001
1.615117e+003,9.178996e+001
1.627652e+003,9.104509e+001
1.640187e+003,9.054711e+001
1.652722e+003,9.052457e+001
1.665258e+003,8.797950e+001
1.677793e+003,8.263239e+001
1.690328e+003,7.388170e+001
1.702863e+003,6.333120e+001
1.715399e+003,3.095509e+001
1.727934e+003,3.573285e+001
1.740469e+003,6.572688e+001
1.753004e+003,9.046158e+001
1.765539e+003,9.410455e+001
1.778075e+003,9.562933e+001
1.790610e+003,9.673553e+001
1.803145e+003,9.750771e+001
1.815680e+003,9.806516e+001
1.828216e+003,9.817009e+001
1.840751e+003,9.812843e+001
1.853286e+003,9.838654e+001
1.865821e+003,9.847772e+001
1.878357e+003,9.849370e+001
1.890892e+003,9.845690e+001
1.903427e+003,9.840814e+001
1.915962e+003,9.839000e+001
1.928498e+003,9.853193e+001
1.941033e+003,9.853683e+001
1.953568e+003,9.858520e+001
1.966103e+003,9.846109e+001
1.978638e+003,9.792789e+001
1.991174e+003,9.835571e+001
2.003709e+003,9.847737e+001
2.016244e+003,9.838335e+001
2.028779e+003,9.859765e+001
2.041315e+003,9.798816e+001
2.053850e+003,9.827628e+001
2.066385e+003,9.824949e+001
2.078920e+003,9.806888e+001
2.091456e+003,9.813659e+001
2.103991e+003,9.806259e+001
2.116526e+003,9.834441e+001
2.129061e+003,9.872168e+001
2.141596e+003,9.862740e+001
2.154132e+003,9.892136e+001
2.166667e+003,9.826963e+001
2.179202e+003,9.841828e+001
2.191738e+003,9.837566e+001
2.204273e+003,9.853084e+001
2.216808e+003,9.825509e+001
2.229343e+003,9.837798e+001
2.241878e+003,9.834039e+001
2.254414e+003,9.848503e+001
2.266949e+003,9.833990e+001
2.279484e+003,9.814800e+001
2.292019e+003,9.767735e+001
2.304555e+003,9.674215e+001
2.317090e+003,9.500706e+001
2.329625e+003,9.298061e+001
2.342160e+003,9.213060e+001
2.354696e+003,9.135282e+001
2.367231e+003,9.177357e+001
2.379766e+003,9.675616e+001
2.392301e+003,9.844610e+001
2.404836e+003,9.845766e+001
2.417372e+003,9.833337e+001
2.429907e+003,9.836977e+001
2.442442e+003,9.839724e+001
2.454977e+003,9.835016e+001
2.467513e+003,9.835106e+001
2.480048e+003,9.831571e+001
2.492583e+003,9.831407e+001
2.505118e+003,9.833332e+001
2.517654e+003,9.832007e+001
2.530189e+003,9.805735e+001
2.542724e+003,9.812045e+001
2.555259e+003,9.821552e+001
2.567794e+003,9.811808e+001
2.580330e+003,9.793536e+001
2.592865e+003,9.797640e+001
2.605400e+003,9.799266e+001
2.617936e+003,9.788378e+001
2.630471e+003,9.787276e+001
2.643006e+003,9.769587e+001
2.655541e+003,9.771304e+001
2.668076e+003,9.777048e+001
2.680612e+003,9.768719e+001
2.693147e+003,9.765296e+001
2.705682e+003,9.762420e+001
2.718217e+003,9.752462e+001
2.730753e+003,9.745740e+001
2.743288e+003,9.742445e+001
2.755823e+003,9.734770e+001
2.768358e+003,9.715580e+001
2.780894e+003,9.703057e+001
2.793429e+003,9.685616e+001
2.805964e+003,9.659112e+001
2.818499e+003,9.581917e+001
2.831034e+003,9.487467e+001
2.843570e+003,9.226347e+001
2.856105e+003,8.466798e+001
2.868640e+003,8.135688e+001
2.881175e+003,8.806748e+001
2.893711e+003,8.427075e+001
2.906246e+003,8.337955e+001
2.918781e+003,7.926064e+001
2.931316e+003,7.485051e+001
2.943852e+003,7.244316e+001
2.956387e+003,7.737947e+001
2.968922e+003,8.672925e+001
2.981457e+003,9.296896e+001
2.993992e+003,9.550555e+001
3.006528e+003,9.645553e+001
3.019063e+003,9.668811e+001
3.031598e+003,9.681673e+001
3.044134e+003,9.685027e+001
3.056669e+003,9.687603e+001
3.069204e+003,9.690939e+001
3.081739e+003,9.694150e+001
3.094274e+003,9.687788e+001
3.106810e+003,9.682368e+001
3.119345e+003,9.683353e+001
3.131880e+003,9.685571e+001
3.144415e+003,9.678501e+001
3.156950e+003,9.677623e+001
3.169486e+003,9.677804e+001
3.182021e+003,9.673058e+001
3.194556e+003,9.676199e+001
3.207092e+003,9.666106e+001
3.219627e+003,9.669925e+001
3.232162e+003,9.667646e+001
3.244697e+003,9.663596e+001
3.257232e+003,9.658022e+001
3.269768e+003,9.662517e+001
3.282303e+003,9.658262e+001
3.294838e+003,9.663469e+001
3.307373e+003,9.668481e+001
3.319909e+003,9.660271e+001
3.332444e+003,9.661945e+001
3.344979e+003,9.657988e+001
3.357514e+003,9.661018e+001
3.370050e+003,9.664823e+001
3.382585e+003,9.672520e+001
3.395120e+003,9.669706e+001
3.407655e+003,9.665123e+001
3.420190e+003,9.664516e+001
3.432726e+003,9.638019e+001
3.445261e+003,9.637429e+001
3.457796e+003,9.663907e+001
3.470332e+003,9.703713e+001
3.482867e+003,9.731231e+001
3.495402e+003,9.715231e+001
3.507937e+003,9.736803e+001
3.520472e+003,9.744845e+001
3.533008e+003,9.772528e+001
3.545543e+003,9.755866e+001
3.558078e+003,9.781332e+001
3.570613e+003,9.794021e+001
3.583148e+003,9.791161e+001
3.595684e+003,9.798644e+001
3.608219e+003,9.784972e+001
3.620754e+003,9.820574e+001
3.633290e+003,9.813332e+001
3.645825e+003,9.871323e+001
3.658360e+003,9.884287e+001
3.670895e+003,9.923347e+001
3.683430e+003,9.899743e+001
3.695966e+003,9.876266e+001
3.708501e+003,9.872598e+001
3.721036e+003,9.867912e+001
3.733571e+003,9.874754e+001
3.746107e+003,9.921817e+001
3.758642e+003,9.908231e+001
3.771177e+003,9.917825e+001
3.783712e+003,9.903759e+001
3.796248e+003,9.926818e+001
3.808783e+003,9.919495e+001
3.821318e+003,9.929562e+001
3.833853e+003,9.900089e+001
3.846388e+003,9.904910e+001
3.858924e+003,9.904411e+001
3.871459e+003,9.908857e+001
3.883994e+003,9.906678e+001
3.896529e+003,9.897958e+001
3.909065e+003,9.902782e+001
3.921600e+003,9.915302e+001
3.934135e+003,9.909575e+001
3.946670e+003,9.907214e+001
3.959206e+003,9.905211e+001
3.971741e+003,9.902262e+001
3.984276e+003,9.903068e+001
3.996811e+003,9.902939e+001
4.000668e+003,0.000000e+000