File: FTIR Data (PCL)/All Data/PCL_NaOH_2_2.CSV
3.991989e+002,0.000000e+000
4.117341e+002,0.000000e+000
4.242693e+002,0.000000e+000
4.368046e+002,0.000000e+000
4.493398e+002,0.000000e+000
4.618751e+002,0.000000e+000
4.744103e+002,0.000000e+000
4.869455e+002,0.000000e+000
4.994808e+002,0.000000e+000
5.120160e+002,0.000000e+000
5.245512e+002,0.000000e+000
5.370865e+002,0.000000e+000
5.496217e+002,8.609876e+001
5.621569e+002,8.727974e+001
5.746922e+002,7.918922e+001
5.872274e+002,7.937408e+001
5.997626e+002,8.406679e+001
6.122979e+002,8.497349e+001
6.248331e+002,8.535352e+001
6.373683e+002,8.632307e+001
6.499036e+002,8.585902e+001
6.624388e+002,8.602158e+001
6.749741e+002,8.554680e+001
6.875093e+002,8.373681e+001
7.000445e+002,7.851579e+001
7.125798e+002,7.380773e+001
7.251150e+002,6.384647e+001
7.376502e+002,7.169090e+001
7.501855e+002,8.550174e+001
7.627207e+002,8.736073e+001
7.752559e+002,8.529335e+001
7.877911e+002,8.758861e+001
8.003264e+002,8.750024e+001
8.128616e+002,8.752549e+001
8.253969e+002,8.695942e+001
8.379321e+002,8.012125e+001
8.504673e+002,8.551547e+001
8.630026e+002,8.511084e+001
8.755378e+002,8.469522e+001
8.880731e+002,8.397545e+001
9.006083e+002,8.321448e+001
9.131435e+002,8.089565e+001
9.256788e+002,7.522680e+001
9.382140e+002,7.164983e+001
9.507492e+002,6.735647e+001
9.632844e+002,5.731578e+001
9.758197e+002,7.473123e+001
9.883549e+002,7.670914e+001
1.000890e+003,7.604172e+001
1.013425e+003,7.348232e+001
1.025961e+003,6.780000e+001
1.038496e+003,5.411338e+001
1.051031e+003,5.809940e+001
1.063566e+003,6.424732e+001
1.076102e+003,7.181033e+001
1.088637e+003,6.255046e+001
1.101172e+003,5.784103e+001
1.113707e+003,6.407826e+001
1.126243e+003,6.845483e+001
1.138778e+003,5.307781e+001
1.151313e+003,3.111116e+001
1.163848e+003,2.443467e+001
1.176383e+003,2.833786e+001
1.188919e+003,3.514475e+001
1.201454e+003,6.608260e+001
1.213989e+003,7.127670e+001
1.226524e+003,6.307935e+001
1.239060e+003,3.916549e+001
1.251595e+003,7.040871e+001
1.264130e+003,7.841951e+001
1.276665e+003,7.681471e+001
1.289201e+003,6.450774e+001
1.301736e+003,7.427332e+001
1.314271e+003,8.357090e+001
1.326806e+003,8.497987e+001
1.339342e+003,8.602627e+001
1.351877e+003,7.498730e+001
1.364412e+003,6.011315e+001
1.376947e+003,7.370326e+001
1.389482e+003,8.224718e+001
1.402018e+003,8.163445e+001
1.414553e+003,7.648207e+001
1.427088e+003,8.687267e+001
1.439623e+003,8.741470e+001
1.452159e+003,8.638845e+001
1.464694e+003,7.960398e+001
1.477229e+003,8.342722e+001
1.489764e+003,9.541201e+001
1.502300e+003,9.652518e+001
1.514835e+003,9.690054e+001
1.527370e+003,9.704742e+001
1.539905e+003,9.734629e+001
1.552441e+003,9.696844e+001
1.564976e+003,9.695876e+001
1.577511e+003,9.677698e+001
1.590046e+003,9.645759e+001
1.602581e+003,9.600313e+001
1.615117e+003,9.530810e+001
1.627652e+003,9.441306e+001
1.640187e+003,9.352242e+001
1.652722e+003,9.279762e+001
1.665258e+003,8.997969e+001
1.677793e+003,8.374104e+001
1.690328e+003,7.398275e+001
1.702863e+003,6.233896e+001
1.715399e+003,2.734362e+001
1.727934e+003,3.318914e+001
1.740469e+003,6.448322e+001
1.753004e+003,9.042526e+001
1.765539e+003,9.413155e+001
1.778075e+003,9.568678e+001
1.790610e+003,9.685509e+001
1.803145e+003,9.769637e+001
1.815680e+003,9.817765e+001
1.828216e+003,9.838060e+001
1.840751e+003,9.831728e+001
1.853286e+003,9.864561e+001
1.865821e+003,9.869061e+001
1.878357e+003,9.869718e+001
1.890892e+003,9.870205e+001
1.903427e+003,9.861841e+001
1.915962e+003,9.867576e+001
1.928498e+003,9.865313e+001
1.941033e+003,9.875849e+001
1.953568e+003,9.886330e+001
1.966103e+003,9.872525e+001
1.978638e+003,9.826288e+001
1.991174e+003,9.876558e+001
2.003709e+003,9.867777e+001
2.016244e+003,9.854360e+001
2.028779e+003,9.858095e+001
2.041315e+003,9.839691e+001
2.053850e+003,9.871888e+001
2.066385e+003,9.852703e+001
2.078920e+003,9.833166e+001
2.091456e+003,9.828262e+001
2.103991e+003,9.831876e+001
2.116526e+003,9.854684e+001
2.129061e+003,9.896329e+001
2.141596e+003,9.892776e+001
2.154132e+003,9.905618e+001
2.166667e+003,9.844893e+001
2.179202e+003,9.879318e+001
2.191738e+003,9.880916e+001
2.204273e+003,9.909043e+001
2.216808e+003,9.864808e+001
2.229343e+003,9.878059e+001
2.241878e+003,9.861778e+001
2.254414e+003,9.879939e+001
2.266949e+003,9.881366e+001
2.279484e+003,9.864364e+001
2.292019e+003,9.837000e+001
2.304555e+003,9.845704e+001
2.317090e+003,9.833114e+001
2.329625e+003,9.842123e+001
2.342160e+003,9.813323e+001
2.354696e+003,9.830350e+001
2.367231e+003,9.859558e+001
2.379766e+003,9.875420e+001
2.392301e+003,9.887218e+001
2.404836e+003,9.880761e+001
2.417372e+003,9.875149e+001
2.429907e+003,9.886192e+001
2.442442e+003,9.875558e+001
2.454977e+003,9.884457e+001
2.467513e+003,9.883919e+001
2.480048e+003,9.880975e+001
2.492583e+003,9.887901e+001
2.505118e+003,9.891885e+001
2.517654e+003,9.886514e+001
2.530189e+003,9.870238e+001
2.542724e+003,9.870531e+001
2.555259e+003,9.880244e+001
2.567794e+003,9.872851e+001
2.580330e+003,9.864673e+001
2.592865e+003,9.875684e+001
2.605400e+003,9.861959e+001
2.617936e+003,9.857087e+001
2.630471e+003,9.858901e+001
2.643006e+003,9.833610e+001
2.655541e+003,9.839013e+001
2.668076e+003,9.844760e+001
2.680612e+003,9.840961e+001
2.693147e+003,9.840466e+001
2.705682e+003,9.837627e+001
2.718217e+003,9.834357e+001
2.730753e+003,9.830731e+001
2.743288e+003,9.824013e+001
2.755823e+003,9.817803e+001
2.768358e+003,9.797775e+001
2.780894e+003,9.790439e+001
2.793429e+003,9.776160e+001
2.805964e+003,9.740828e+001
2.818499e+003,9.661276e+001
2.831034e+003,9.570396e+001
2.843570e+003,9.301830e+001
2.856105e+003,8.489009e+001
2.868640e+003,8.094000e+001
2.881175e+003,8.833262e+001
2.893711e+003,8.430289e+001
2.906246e+003,8.353207e+001
2.918781e+003,7.933894e+001
2.931316e+003,7.434309e+001
2.943852e+003,7.120733e+001
2.956387e+003,7.662691e+001
2.968922e+003,8.685091e+001
2.981457e+003,9.372765e+001
2.993992e+003,9.652975e+001
3.006528e+003,9.763444e+001
3.019063e+003,9.800307e+001
3.031598e+003,9.824566e+001
3.044134e+003,9.836915e+001
3.056669e+003,9.850594e+001
3.069204e+003,9.853189e+001
3.081739e+003,9.860448e+001
3.094274e+003,9.857691e+001
3.106810e+003,9.855870e+001
3.119345e+003,9.867850e+001
3.131880e+003,9.864121e+001
3.144415e+003,9.861454e+001
3.156950e+003,9.863367e+001
3.169486e+003,9.861239e+001
3.182021e+003,9.864622e+001
3.194556e+003,9.870073e+001
3.207092e+003,9.871292e+001
3.219627e+003,9.877376e+001
3.232162e+003,9.874171e+001
3.244697e+003,9.863205e+001
3.257232e+003,9.860413e+001
3.269768e+003,9.862283e+001
3.282303e+003,9.856994e+001
3.294838e+003,9.867930e+001
3.307373e+003,9.875626e+001
3.319909e+003,9.869221e+001
3.332444e+003,9.861898e+001
3.344979e+003,9.863734e+001
3.357514e+003,9.871449e+001
3.370050e+003,9.868422e+001
3.382585e+003,9.870266e+001
3.395120e+003,9.859060e+001
3.407655e+003,9.874265e+001
3.420190e+003,9.843578e+001
3.432726e+003,9.805394e+001
3.445261e+003,9.801466e+001
3.457796e+003,9.843375e+001
3.470332e+003,9.854987e+001
3.482867e+003,9.882448e+001
3.495402e+003,9.862957e+001
3.507937e+003,9.882171e+001
3.520472e+003,9.886078e+001
3.533008e+003,9.887289e+001
3.545543e+003,9.874430e+001
3.558078e+003,9.899848e+001
3.570613e+003,9.906277e+001
3.583148e+003,9.909442e+001
3.595684e+003,9.922120e+001
3.608219e+003,9.887598e+001
3.620754e+003,9.933456e+001
3.633290e+003,9.915574e+001
3.645825e+003,9.940603e+001
3.658360e+003,9.929386e+001
3.670895e+003,9.936525e+001
3.683430e+003,9.943523e+001
3.695966e+003,9.950685e+001
3.708501e+003,9.951068e+001
3.721036e+003,9.950108e+001
3.733571e+003,9.963908e+001
3.746107e+003,9.941424e+001
3.758642e+003,9.951316e+001
3.771177e+003,9.942545e+001
3.783712e+003,9.950481e+001
3.796248e+003,9.969881e+001
3.808783e+003,9.949604e+001
3.821318e+003,9.978036e+001
3.833853e+003,9.944734e+001
3.846388e+003,9.940012e+001
3.858924e+003,9.932972e+001
3.871459e+003,9.943495e+001
3.883994e+003,9.939736e+001
3.896529e+003,9.927953e+001
3.909065e+003,9.942750e+001
3.921600e+003,9.947025e+001
3.934135e+003,9.939070e+001
3.946670e+003,9.943571e+001
3.959206e+003,9.932865e+001
3.971741e+003,9.935249e+001
3.984276e+003,9.941077e+001
3.996811e+003,9.931709e+001
4.000668e+003,0.000000e+000