File: FTIR Data (PCL)/All Data/PCL_NaOH_2_3.CSV
3.991989e+002,0.000000e+000
4.117341e+002,0.000000e+000
4.242693e+002,0.000000e+000
4.368046e+002,0.000000e+000
4.493398e+002,0.000000e+000
4.618751e+002,0.000000e+000
4.744103e+002,0.000000e+000
4.869455e+002,0.000000e+000
4.994808e+002,0.000000e+000
5.120160e+002,0.000000e+000
5.245512e+002,0.000000e+000
5.370865e+002,0.000000e+000
5.496217e+002,8.424376e+001
5.621569e+002,8.209379e+001
5.746922e+002,7.831475e+001
5.872274e+002,7.806052e+001
5.997626e+002,8.401772e+001
6.122979e+002,8.549839e+001
6.248331e+002,8.566847e+001
6.373683e+002,8.680352e+001
6.499036e+002,8.627559e+001
6.624388e+002,8.631116e+001
6.749741e+002,8.583022e+001
6.875093e+002,8.380671e+001
7.000445e+002,7.831925e+001
7.125798e+002,7.341145e+001
7.251150e+002,6.322583e+001
7.376502e+002,6.952818e+001
7.501855e+002,8.551501e+001
7.627207e+002,8.744807e+001
7.752559e+002,8.511028e+001
7.877911e+002,8.770374e+001
8.003264e+002,8.766824e+001
8.128616e+002,8.769337e+001
8.253969e+002,8.710950e+001
8.379321e+002,7.946641e+001
8.504673e+002,8.570567e+001
8.630026e+002,8.525684e+001
8.755378e+002,8.478844e+001
8.880731e+002,8.418417e+001
9.006083e+002,8.343623e+001
9.131435e+002,8.088667e+001
9.256788e+002,7.495550e+001
9.382140e+002,7.106145e+001
9.507492e+002,6.662714e+001
9.632844e+002,5.673944e+001
9.758197e+002,7.466904e+001
9.883549e+002,7.710480e+001
1.000890e+003,7.653543e+001
1.013425e+003,7.380396e+001
1.025961e+003,6.784345e+001
1.038496e+003,5.372985e+001
1.051031e+003,5.659899e+001
1.063566e+003,6.431973e+001
1.076102e+003,7.203355e+001
1.088637e+003,6.230005e+001
1.101172e+003,5.704835e+001
1.113707e+003,6.329612e+001
1.126243e+003,6.796944e+001
1.138778e+003,5.194751e+001
1.151313e+003,2.911344e+001
1.163848e+003,2.137946e+001
1.176383e+003,2.573565e+001
1.188919e+003,3.472621e+001
1.201454e+003,6.558456e+001
1.213989e+003,7.077070e+001
1.226524e+003,6.235802e+001
1.239060e+003,3.724409e+001
1.251595e+003,7.045510e+001
1.264130e+003,7.822442e+001
1.276665e+003,7.655132e+001
1.289201e+003,6.347487e+001
1.301736e+003,7.371438e+001
1.314271e+003,8.331960e+001
1.326806e+003,8.486834e+001
1.339342e+003,8.610639e+001
1.351877e+003,7.444191e+001
1.364412e+003,5.885736e+001
1.376947e+003,7.371040e+001
1.389482e+003,8.198723e+001
1.402018e+003,8.129646e+001
1.414553e+003,7.544366e+001
1.427088e+003,8.660709e+001
1.439623e+003,8.741647e+001
1.452159e+003,8.621670e+001
1.464694e+003,7.905572e+001
1.477229e+003,8.254601e+001
1.489764e+003,9.556116e+001
1.502300e+003,9.671983e+001
1.514835e+003,9.712311e+001
1.527370e+003,9.735981e+001
1.539905e+003,9.761472e+001
1.552441e+003,9.728073e+001
1.564976e+003,9.728239e+001
1.577511e+003,9.709225e+001
1.590046e+003,9.683212e+001
1.602581e+003,9.636797e+001
1.615117e+003,9.565436e+001
1.627652e+003,9.475196e+001
1.640187e+003,9.385224e+001
1.652722e+003,9.309555e+001
1.665258e+003,9.021164e+001
1.677793e+003,8.366940e+001
1.690328e+003,7.340905e+001
1.702863e+003,6.168389e+001
1.715399e+003,2.601925e+001
1.727934e+003,2.967877e+001
1.740469e+003,6.277691e+001
1.753004e+003,9.026836e+001
1.765539e+003,9.410135e+001
1.778075e+003,9.568365e+001
1.790610e+003,9.688817e+001
1.803145e+003,9.770010e+001
1.815680e+003,9.830746e+001
1.828216e+003,9.858269e+001
1.840751e+003,9.853452e+001
1.853286e+003,9.887737e+001
1.865821e+003,9.895747e+001
1.878357e+003,9.894450e+001
1.890892e+003,9.885269e+001
1.903427e+003,9.894607e+001
1.915962e+003,9.878011e+001
1.928498e+003,9.903198e+001
1.941033e+003,9.896013e+001
1.953568e+003,9.902306e+001
1.966103e+003,9.891251e+001
1.978638e+003,9.831513e+001
1.991174e+003,9.900104e+001
2.003709e+003,9.905075e+001
2.016244e+003,9.912758e+001
2.028779e+003,9.894669e+001
2.041315e+003,9.862039e+001
2.053850e+003,9.881264e+001
2.066385e+003,9.874179e+001
2.078920e+003,9.853362e+001
2.091456e+003,9.859050e+001
2.103991e+003,9.857938e+001
2.116526e+003,9.889320e+001
2.129061e+003,9.932765e+001
2.141596e+003,9.918424e+001
2.154132e+003,9.944260e+001
2.166667e+003,9.879489e+001
2.179202e+003,9.897330e+001
2.191738e+003,9.900057e+001
2.204273e+003,9.913322e+001
2.216808e+003,9.901023e+001
2.229343e+003,9.895890e+001
2.241878e+003,9.904534e+001
2.254414e+003,9.900939e+001
2.266949e+003,9.906091e+001
2.279484e+003,9.890427e+001
2.292019e+003,9.870473e+001
2.304555e+003,9.868841e+001
2.317090e+003,9.843430e+001
2.329625e+003,9.854604e+001
2.342160e+003,9.830260e+001
2.354696e+003,9.850866e+001
2.367231e+003,9.856699e+001
2.379766e+003,9.900389e+001
2.392301e+003,9.921347e+001
2.404836e+003,9.914241e+001
2.417372e+003,9.907769e+001
2.429907e+003,9.920519e+001
2.442442e+003,9.909531e+001
2.454977e+003,9.912835e+001
2.467513e+003,9.910593e+001
2.480048e+003,9.914111e+001
2.492583e+003,9.914724e+001
2.505118e+003,9.919934e+001
2.517654e+003,9.909217e+001
2.530189e+003,9.900868e+001
2.542724e+003,9.897134e+001
2.555259e+003,9.910525e+001
2.567794e+003,9.906123e+001
2.580330e+003,9.889688e+001
2.592865e+003,9.897854e+001
2.605400e+003,9.893131e+001
2.617936e+003,9.888284e+001
2.630471e+003,9.877589e+001
2.643006e+003,9.865358e+001
2.655541e+003,9.866882e+001
2.668076e+003,9.879552e+001
2.680612e+003,9.865440e+001
2.693147e+003,9.869681e+001
2.705682e+003,9.864778e+001
2.718217e+003,9.862070e+001
2.730753e+003,9.859254e+001
2.743288e+003,9.849950e+001
2.755823e+003,9.845223e+001
2.768358e+003,9.821452e+001
2.780894e+003,9.815294e+001
2.793429e+003,9.797773e+001
2.805964e+003,9.768920e+001
2.818499e+003,9.686536e+001
2.831034e+003,9.591251e+001
2.843570e+003,9.313691e+001
2.856105e+003,8.465313e+001
2.868640e+003,8.021103e+001
2.881175e+003,8.810175e+001
2.893711e+003,8.388281e+001
2.906246e+003,8.318021e+001
2.918781e+003,7.877847e+001
2.931316e+003,7.341581e+001
2.943852e+003,7.016206e+001
2.956387e+003,7.563253e+001
2.968922e+003,8.643488e+001
2.981457e+003,9.361238e+001
2.993992e+003,9.666819e+001
3.006528e+003,9.783070e+001
3.019063e+003,9.830013e+001
3.031598e+003,9.845940e+001
3.044134e+003,9.856989e+001
3.056669e+003,9.867397e+001
3.069204e+003,9.878797e+001
3.081739e+003,9.882593e+001
3.094274e+003,9.886156e+001
3.106810e+003,9.881263e+001
3.119345e+003,9.896569e+001
3.131880e+003,9.893091e+001
3.144415e+003,9.896326e+001
3.156950e+003,9.895990e+001
3.169486e+003,9.895538e+001
3.182021e+003,9.896786e+001
3.194556e+003,9.902716e+001
3.207092e+003,9.901151e+001
3.219627e+003,9.896816e+001
3.232162e+003,9.903762e+001
3.244697e+003,9.900297e+001
3.257232e+003,9.899179e+001
3.269768e+003,9.898326e+001
3.282303e+003,9.901463e+001
3.294838e+003,9.894983e+001
3.307373e+003,9.894006e+001
3.319909e+003,9.899931e+001
3.332444e+003,9.904944e+001
3.344979e+003,9.890199e+001
3.357514e+003,9.898959e+001
3.370050e+003,9.903487e+001
3.382585e+003,9.910067e+001
3.395120e+003,9.894549e+001
3.407655e+003,9.895699e+001
3.420190e+003,9.873560e+001
3.432726e+003,9.827681e+001
3.445261e+003,9.822979e+001
3.457796e+003,9.863690e+001
3.470332e+003,9.888998e+001
3.482867e+003,9.906677e+001
3.495402e+003,9.895892e+001
3.507937e+003,9.911748e+001
3.520472e+003,9.918155e+001
3.533008e+003,9.910294e+001
3.545543e+003,9.899339e+001
3.558078e+003,9.915131e+001
3.570613e+003,9.916833e+001
3.583148e+003,9.931016e+001
3.595684e+003,9.950855e+001
3.608219e+003,9.914025e+001
3.620754e+003,9.930570e+001
3.633290e+003,9.924279e+001
3.645825e+003,9.955540e+001
3.658360e+003,9.943288e+001
3.670895e+003,9.963138e+001
3.683430e+003,9.960374e+001
3.695966e+003,9.966938e+001
3.708501e+003,9.967963e+001
3.721036e+003,9.963887e+001
3.733571e+003,9.961969e+001
3.746107e+003,9.967100e+001
3.758642e+003,9.966534e+001
3.771177e+003,9.970793e+001
3.783712e+003,9.962637e+001
3.796248e+003,9.978031e+001
3.808783e+003,9.965971e+001
3.821318e+003,9.980042e+001
3.833853e+003,9.959565e+001
3.846388e+003,9.960865e+001
3.858924e+003,9.963641e+001
3.871459e+003,9.950000e+001
3.883994e+003,9.954431e+001
3.896529e+003,9.945437e+001
3.909065e+003,9.948581e+001
3.921600e+003,9.963731e+001
3.934135e+003,9.952508e+001
3.946670e+003,9.949034e+001
3.959206e+003,9.942300e+001
3.971741e+003,9.947043e+001
3.984276e+003,9.957226e+001
3.996811e+003,9.944753e+001
4.000668e+003,0.000000e+000