File: FTIR Data (PCL)/All Data/PCL_NaOH_PDA_1_1.CSV
3.991989e+002,0.000000e+000
4.117341e+002,0.000000e+000
4.242693e+002,0.000000e+000
4.368046e+002,0.000000e+000
4.493398e+002,0.000000e+000
4.618751e+002,0.000000e+000
4.744103e+002,0.000000e+000
4.869455e+002,0.000000e+000
4.994808e+002,0.000000e+000
5.120160e+002,0.000000e+000
5.245512e+002,0.000000e+000
5.370865e+002,0.000000e+000
5.496217e+002,8.392496e+001
5.621569e+002,8.415066e+001
5.746922e+002,7.754389e+001
5.872274e+002,7.931725e+001
5.997626e+002,8.424722e+001
6.122979e+002,8.477707e+001
6.248331e+002,8.567342e+001
6.373683e+002,8.566138e+001
6.499036e+002,8.566858e+001
6.624388e+002,8.557840e+001
6.749741e+002,8.504814e+001
6.875093e+002,8.341313e+001
7.000445e+002,7.870382e+001
7.125798e+002,7.458633e+001
7.251150e+002,6.553915e+001
7.376502e+002,7.151841e+001
7.501855e+002,8.521725e+001
7.627207e+002,8.695974e+001
7.752559e+002,8.485565e+001
7.877911e+002,8.709824e+001
8.003264e+002,8.705927e+001
8.128616e+002,8.701923e+001
8.253969e+002,8.648273e+001
8.379321e+002,7.994647e+001
8.504673e+002,8.533751e+001
8.630026e+002,8.504913e+001
8.755378e+002,8.461329e+001
8.880731e+002,8.411259e+001
9.006083e+002,8.350408e+001
9.131435e+002,8.138704e+001
9.256788e+002,7.613809e+001
9.382140e+002,7.322415e+001
9.507492e+002,6.934639e+001
9.632844e+002,6.083804e+001
9.758197e+002,7.599390e+001
9.883549e+002,7.814233e+001
1.000890e+003,7.770136e+001
1.013425e+003,7.528969e+001
1.025961e+003,7.025446e+001
1.038496e+003,5.835993e+001
1.051031e+003,6.086147e+001
1.063566e+003,6.699908e+001
1.076102e+003,7.348375e+001
1.088637e+003,6.509734e+001
1.101172e+003,6.063002e+001
1.113707e+003,6.624831e+001
1.126243e+003,7.017925e+001
1.138778e+003,5.643830e+001
1.151313e+003,3.612128e+001
1.163848e+003,2.921490e+001
1.176383e+003,3.317132e+001
1.188919e+003,4.033468e+001
1.201454e+003,6.748785e+001
1.213989e+003,7.200723e+001
1.226524e+003,6.497723e+001
1.239060e+003,4.363609e+001
1.251595e+003,7.180762e+001
1.264130e+003,7.836304e+001
1.276665e+003,7.688777e+001
1.289201e+003,6.644209e+001
1.301736e+003,7.475756e+001
1.314271e+003,8.306689e+001
1.326806e+003,8.429945e+001
1.339342e+003,8.520313e+001
1.351877e+003,7.546476e+001
1.364412e+003,6.283342e+001
1.376947e+003,7.512192e+001
1.389482e+003,8.201080e+001
1.402018e+003,8.165279e+001
1.414553e+003,7.620782e+001
1.427088e+003,8.593866e+001
1.439623e+003,8.634711e+001
1.452159e+003,8.513908e+001
1.464694e+003,7.884896e+001
1.477229e+003,8.225165e+001
1.489764e+003,9.319661e+001
1.502300e+003,9.370457e+001
1.514835e+003,9.391715e+001
1.527370e+003,9.430030e+001
1.539905e+003,9.465111e+001
1.552441e+003,9.444474e+001
1.564976e+003,9.432452e+001
1.577511e+003,9.395567e+001
1.590046e+003,9.362023e+001
1.602581e+003,9.307247e+001
1.615117e+003,9.244629e+001
1.627652e+003,9.178333e+001
1.640187e+003,9.130855e+001
1.652722e+003,9.045589e+001
1.665258e+003,8.854781e+001
1.677793e+003,8.312312e+001
1.690328e+003,7.421146e+001
1.702863e+003,6.375021e+001
1.715399e+003,3.156434e+001
1.727934e+003,3.561417e+001
1.740469e+003,6.608820e+001
1.753004e+003,9.064406e+001
1.765539e+003,9.415389e+001
1.778075e+003,9.555096e+001
1.790610e+003,9.663663e+001
1.803145e+003,9.740368e+001
1.815680e+003,9.788732e+001
1.828216e+003,9.801410e+001
1.840751e+003,9.799295e+001
1.853286e+003,9.839185e+001
1.865821e+003,9.837782e+001
1.878357e+003,9.843125e+001
1.890892e+003,9.835500e+001
1.903427e+003,9.833717e+001
1.915962e+003,9.823550e+001
1.928498e+003,9.848116e+001
1.941033e+003,9.845254e+001
1.953568e+003,9.834057e+001
1.966103e+003,9.846208e+001
1.978638e+003,9.776142e+001
1.991174e+003,9.846149e+001
2.003709e+003,9.827940e+001
2.016244e+003,9.844048e+001
2.028779e+003,9.817698e+001
2.041315e+003,9.804480e+001
2.053850e+003,9.820486e+001
2.066385e+003,9.825549e+001
2.078920e+003,9.794701e+001
2.091456e+003,9.813586e+001
2.103991e+003,9.807112e+001
2.116526e+003,9.813741e+001
2.129061e+003,9.859921e+001
2.141596e+003,9.848227e+001
2.154132e+003,9.860416e+001
2.166667e+003,9.807846e+001
2.179202e+003,9.845054e+001
2.191738e+003,9.857994e+001
2.204273e+003,9.859119e+001
2.216808e+003,9.829119e+001
2.229343e+003,9.834702e+001
2.241878e+003,9.840211e+001
2.254414e+003,9.848903e+001
2.266949e+003,9.840257e+001
2.279484e+003,9.814951e+001
2.292019e+003,9.812380e+001
2.304555e+003,9.809308e+001
2.317090e+003,9.805095e+001
2.329625e+003,9.822833e+001
2.342160e+003,9.811408e+001
2.354696e+003,9.828776e+001
2.367231e+003,9.852359e+001
2.379766e+003,9.842609e+001
2.392301e+003,9.841728e+001
2.404836e+003,9.832619e+001
2.417372e+003,9.826757e+001
2.429907e+003,9.839550e+001
2.442442e+003,9.831274e+001
2.454977e+003,9.825062e+001
2.467513e+003,9.823347e+001
2.480048e+003,9.823291e+001
2.492583e+003,9.832331e+001
2.505118e+003,9.833410e+001
2.517654e+003,9.825842e+001
2.530189e+003,9.806160e+001
2.542724e+003,9.809017e+001
2.555259e+003,9.815481e+001
2.567794e+003,9.808439e+001
2.580330e+003,9.798350e+001
2.592865e+003,9.792810e+001
2.605400e+003,9.792000e+001
2.617936e+003,9.789336e+001
2.630471e+003,9.784865e+001
2.643006e+003,9.768787e+001
2.655541e+003,9.770199e+001
2.668076e+003,9.784255e+001
2.680612e+003,9.771500e+001
2.693147e+003,9.768126e+001
2.705682e+003,9.766850e+001
2.718217e+003,9.758532e+001
2.730753e+003,9.753719e+001
2.743288e+003,9.746632e+001
2.755823e+003,9.738934e+001
2.768358e+003,9.723215e+001
2.780894e+003,9.714357e+001
2.793429e+003,9.696002e+001
2.805964e+003,9.668880e+001
2.818499e+003,9.593011e+001
2.831034e+003,9.508583e+001
2.843570e+003,9.256765e+001
2.856105e+003,8.510237e+001
2.868640e+003,8.137805e+001
2.881175e+003,8.820930e+001
2.893711e+003,8.458871e+001
2.906246e+003,8.388113e+001
2.918781e+003,7.988155e+001
2.931316e+003,7.534188e+001
2.943852e+003,7.266245e+001
2.956387e+003,7.740414e+001
2.968922e+003,8.689903e+001
2.981457e+003,9.311726e+001
2.993992e+003,9.571877e+001
3.006528e+003,9.661010e+001
3.019063e+003,9.688873e+001
3.031598e+003,9.708128e+001
3.044134e+003,9.711079e+001
3.056669e+003,9.710194e+001
3.069204e+003,9.718086e+001
3.081739e+003,9.724377e+001
3.094274e+003,9.714323e+001
3.106810e+003,9.716050e+001
3.119345e+003,9.714610e+001
3.131880e+003,9.720518e+001
3.144415e+003,9.720049e+001
3.156950e+003,9.712846e+001
3.169486e+003,9.710265e+001
3.182021e+003,9.719863e+001
3.194556e+003,9.706846e+001
3.207092e+003,9.709327e+001
3.219627e+003,9.712842e+001
3.232162e+003,9.709264e+001
3.244697e+003,9.706807e+001
3.257232e+003,9.703104e+001
3.269768e+003,9.704076e+001
3.282303e+003,9.711623e+001
3.294838e+003,9.706520e+001
3.307373e+003,9.710518e+001
3.319909e+003,9.710916e+001
3.332444e+003,9.710014e+001
3.344979e+003,9.705474e+001
3.357514e+003,9.701748e+001
3.370050e+003,9.715216e+001
3.382585e+003,9.711659e+001
3.395120e+003,9.709138e+001
3.407655e+003,9.722842e+001
3.420190e+003,9.698205e+001
3.432726e+003,9.675846e+001
3.445261e+003,9.681400e+001
3.457796e+003,9.706377e+001
3.470332e+003,9.741379e+001
3.482867e+003,9.762358e+001
3.495402e+003,9.749863e+001
3.507937e+003,9.763749e+001
3.520472e+003,9.774938e+001
3.533008e+003,9.781029e+001
3.545543e+003,9.787441e+001
3.558078e+003,9.801772e+001
3.570613e+003,9.805112e+001
3.583148e+003,9.815034e+001
3.595684e+003,9.845968e+001
3.608219e+003,9.827592e+001
3.620754e+003,9.836295e+001
3.633290e+003,9.848848e+001
3.645825e+003,9.873008e+001
3.658360e+003,9.875409e+001
3.670895e+003,9.894773e+001
3.683430e+003,9.901293e+001
3.695966e+003,9.907603e+001
3.708501e+003,9.926447e+001
3.721036e+003,9.903819e+001
3.733571e+003,9.921988e+001
3.746107e+003,9.915269e+001
3.758642e+003,9.915620e+001
3.771177e+003,9.912161e+001
3.783712e+003,9.913074e+001
3.796248e+003,9.917889e+001
3.808783e+003,9.916165e+001
3.821318e+003,9.911106e+001
3.833853e+003,9.908047e+001
3.846388e+003,9.911658e+001
3.858924e+003,9.907452e+001
3.871459e+003,9.912233e+001
3.883994e+003,9.898695e+001
3.896529e+003,9.904518e+001
3.909065e+003,9.901598e+001
3.921600e+003,9.910493e+001
3.934135e+003,9.896487e+001
3.946670e+003,9.911992e+001
3.959206e+003,9.901012e+001
3.971741e+003,9.907782e+001
3.984276e+003,9.903993e+001
3.996811e+003,9.902045e+001
4.000668e+003,0.000000e+000