File: FTIR Data (PCL)/All Data/PCL_NaOH_PDA_2_1.CSV
3.991989e+002,0.000000e+000
4.117341e+002,0.000000e+000
4.242693e+002,0.000000e+000
4.368046e+002,0.000000e+000
4.493398e+002,0.000000e+000
4.618751e+002,0.000000e+000
4.744103e+002,0.000000e+000
4.869455e+002,0.000000e+000
4.994808e+002,0.000000e+000
5.120160e+002,0.000000e+000
5.245512e+002,0.000000e+000
5.370865e+002,0.000000e+000
5.496217e+002,8.209970e+001
5.621569e+002,8.442381e+001
5.746922e+002,7.671260e+001
5.872274e+002,7.819809e+001
5.997626e+002,8.361460e+001
6.122979e+002,8.435579e+001
6.248331e+002,8.517320e+001
6.373683e+002,8.501741e+001
6.499036e+002,8.394154e+001
6.624388e+002,8.444792e+001
6.749741e+002,8.354826e+001
6.875093e+002,8.192954e+001
7.000445e+002,7.777221e+001
7.125798e+002,7.386177e+001
7.251150e+002,6.465257e+001
7.376502e+002,7.201252e+001
7.501855e+002,8.476086e+001
7.627207e+002,8.641018e+001
7.752559e+002,8.444989e+001
7.877911e+002,8.656949e+001
8.003264e+002,8.639561e+001
8.128616e+002,8.643349e+001
8.253969e+002,8.581210e+001
8.379321e+002,7.954426e+001
8.504673e+002,8.474704e+001
8.630026e+002,8.432942e+001
8.755378e+002,8.394548e+001
8.880731e+002,8.332220e+001
9.006083e+002,8.273642e+001
9.131435e+002,8.050830e+001
9.256788e+002,7.527429e+001
9.382140e+002,7.215128e+001
9.507492e+002,6.787250e+001
9.632844e+002,5.915014e+001
9.758197e+002,7.514173e+001
9.883549e+002,7.687026e+001
1.000890e+003,7.625771e+001
1.013425e+003,7.374590e+001
1.025961e+003,6.829868e+001
1.038496e+003,5.555312e+001
1.051031e+003,5.958159e+001
1.063566e+003,6.532313e+001
1.076102e+003,7.202318e+001
1.088637e+003,6.326155e+001
1.101172e+003,5.884669e+001
1.113707e+003,6.469447e+001
1.126243e+003,6.810758e+001
1.138778e+003,5.378686e+001
1.151313e+003,3.364165e+001
1.163848e+003,2.785858e+001
1.176383e+003,3.203467e+001
1.188919e+003,3.887264e+001
1.201454e+003,6.713564e+001
1.213989e+003,7.159280e+001
1.226524e+003,6.384197e+001
1.239060e+003,4.218214e+001
1.251595e+003,7.109819e+001
1.264130e+003,7.798162e+001
1.276665e+003,7.630513e+001
1.289201e+003,6.493803e+001
1.301736e+003,7.430212e+001
1.314271e+003,8.273895e+001
1.326806e+003,8.397556e+001
1.339342e+003,8.483031e+001
1.351877e+003,7.470612e+001
1.364412e+003,6.141394e+001
1.376947e+003,7.409524e+001
1.389482e+003,8.158514e+001
1.402018e+003,8.117111e+001
1.414553e+003,7.647160e+001
1.427088e+003,8.583012e+001
1.439623e+003,8.609552e+001
1.452159e+003,8.504460e+001
1.464694e+003,7.901333e+001
1.477229e+003,8.267886e+001
1.489764e+003,9.310223e+001
1.502300e+003,9.346915e+001
1.514835e+003,9.373792e+001
1.527370e+003,9.408097e+001
1.539905e+003,9.450664e+001
1.552441e+003,9.406374e+001
1.564976e+003,9.396909e+001
1.577511e+003,9.368493e+001
1.590046e+003,9.315952e+001
1.602581e+003,9.257793e+001
1.615117e+003,9.193236e+001
1.627652e+003,9.124696e+001
1.640187e+003,9.071967e+001
1.652722e+003,9.034618e+001
1.665258e+003,8.809996e+001
1.677793e+003,8.288340e+001
1.690328e+003,7.442391e+001
1.702863e+003,6.393772e+001
1.715399e+003,3.230583e+001
1.727934e+003,3.738951e+001
1.740469e+003,6.650816e+001
1.753004e+003,9.060785e+001
1.765539e+003,9.419450e+001
1.778075e+003,9.566573e+001
1.790610e+003,9.682388e+001
1.803145e+003,9.751154e+001
1.815680e+003,9.805352e+001
1.828216e+003,9.814902e+001
1.840751e+003,9.813582e+001
1.853286e+003,9.846065e+001
1.865821e+003,9.848839e+001
1.878357e+003,9.851675e+001
1.890892e+003,9.842525e+001
1.903427e+003,9.841888e+001
1.915962e+003,9.834206e+001
1.928498e+003,9.844807e+001
1.941033e+003,9.863065e+001
1.953568e+003,9.849595e+001
1.966103e+003,9.853875e+001
1.978638e+003,9.818925e+001
1.991174e+003,9.842447e+001
2.003709e+003,9.852837e+001
2.016244e+003,9.838211e+001
2.028779e+003,9.841604e+001
2.041315e+003,9.836206e+001
2.053850e+003,9.847986e+001
2.066385e+003,9.836221e+001
2.078920e+003,9.825909e+001
2.091456e+003,9.823343e+001
2.103991e+003,9.805761e+001
2.116526e+003,9.837674e+001
2.129061e+003,9.865280e+001
2.141596e+003,9.872520e+001
2.154132e+003,9.874697e+001
2.166667e+003,9.838960e+001
2.179202e+003,9.859297e+001
2.191738e+003,9.851598e+001
2.204273e+003,9.858995e+001
2.216808e+003,9.836349e+001
2.229343e+003,9.841093e+001
2.241878e+003,9.838686e+001
2.254414e+003,9.842164e+001
2.266949e+003,9.832404e+001
2.279484e+003,9.819691e+001
2.292019e+003,9.763898e+001
2.304555e+003,9.662134e+001
2.317090e+003,9.467477e+001
2.329625e+003,9.255811e+001
2.342160e+003,9.159734e+001
2.354696e+003,9.086010e+001
2.367231e+003,9.115757e+001
2.379766e+003,9.665919e+001
2.392301e+003,9.850264e+001
2.404836e+003,9.840811e+001
2.417372e+003,9.838540e+001
2.429907e+003,9.844997e+001
2.442442e+003,9.838806e+001
2.454977e+003,9.836113e+001
2.467513e+003,9.834564e+001
2.480048e+003,9.834486e+001
2.492583e+003,9.840603e+001
2.505118e+003,9.838090e+001
2.517654e+003,9.825729e+001
2.530189e+003,9.813484e+001
2.542724e+003,9.816467e+001
2.555259e+003,9.824216e+001
2.567794e+003,9.812507e+001
2.580330e+003,9.792468e+001
2.592865e+003,9.806714e+001
2.605400e+003,9.803735e+001
2.617936e+003,9.792830e+001
2.630471e+003,9.783165e+001
2.643006e+003,9.767214e+001
2.655541e+003,9.771001e+001
2.668076e+003,9.774906e+001
2.680612e+003,9.766744e+001
2.693147e+003,9.763915e+001
2.705682e+003,9.766159e+001
2.718217e+003,9.752904e+001
2.730753e+003,9.747065e+001
2.743288e+003,9.739526e+001
2.755823e+003,9.736913e+001
2.768358e+003,9.714439e+001
2.780894e+003,9.710406e+001
2.793429e+003,9.685632e+001
2.805964e+003,9.658544e+001
2.818499e+003,9.582099e+001
2.831034e+003,9.487469e+001
2.843570e+003,9.215476e+001
2.856105e+003,8.463865e+001
2.868640e+003,8.165902e+001
2.881175e+003,8.817998e+001
2.893711e+003,8.443964e+001
2.906246e+003,8.351131e+001
2.918781e+003,7.930022e+001
2.931316e+003,7.522677e+001
2.943852e+003,7.294138e+001
2.956387e+003,7.786614e+001
2.968922e+003,8.692572e+001
2.981457e+003,9.306576e+001
2.993992e+003,9.548935e+001
3.006528e+003,9.646117e+001
3.019063e+003,9.676741e+001
3.031598e+003,9.684335e+001
3.044134e+003,9.691790e+001
3.056669e+003,9.692676e+001
3.069204e+003,9.698003e+001
3.081739e+003,9.696201e+001
3.094274e+003,9.690079e+001
3.106810e+003,9.686264e+001
3.119345e+003,9.690030e+001
3.131880e+003,9.694802e+001
3.144415e+003,9.683614e+001
3.156950e+003,9.688059e+001
3.169486e+003,9.679788e+001
3.182021e+003,9.677127e+001
3.194556e+003,9.677840e+001
3.207092e+003,9.675128e+001
3.219627e+003,9.675374e+001
3.232162e+003,9.672523e+001
3.244697e+003,9.670441e+001
3.257232e+003,9.668369e+001
3.269768e+003,9.662719e+001
3.282303e+003,9.663261e+001
3.294838e+003,9.667330e+001
3.307373e+003,9.669261e+001
3.319909e+003,9.671338e+001
3.332444e+003,9.668621e+001
3.344979e+003,9.667167e+001
3.357514e+003,9.678897e+001
3.370050e+003,9.677751e+001
3.382585e+003,9.678426e+001
3.395120e+003,9.678737e+001
3.407655e+003,9.683846e+001
3.420190e+003,9.672906e+001
3.432726e+003,9.657040e+001
3.445261e+003,9.657851e+001
3.457796e+003,9.676772e+001
3.470332e+003,9.702889e+001
3.482867e+003,9.733501e+001
3.495402e+003,9.735851e+001
3.507937e+003,9.745952e+001
3.520472e+003,9.762894e+001
3.533008e+003,9.772346e+001
3.545543e+003,9.756967e+001
3.558078e+003,9.782444e+001
3.570613e+003,9.791879e+001
3.583148e+003,9.798657e+001
3.595684e+003,9.813461e+001
3.608219e+003,9.794394e+001
3.620754e+003,9.826437e+001
3.633290e+003,9.814063e+001
3.645825e+003,9.872687e+001
3.658360e+003,9.880395e+001
3.670895e+003,9.910546e+001
3.683430e+003,9.890275e+001
3.695966e+003,9.874096e+001
3.708501e+003,9.882822e+001
3.721036e+003,9.867837e+001
3.733571e+003,9.873650e+001
3.746107e+003,9.913707e+001
3.758642e+003,9.927991e+001
3.771177e+003,9.910265e+001
3.783712e+003,9.910228e+001
3.796248e+003,9.923689e+001
3.808783e+003,9.916335e+001
3.821318e+003,9.913537e+001
3.833853e+003,9.920997e+001
3.846388e+003,9.906738e+001
3.858924e+003,9.904266e+001
3.871459e+003,9.919523e+001
3.883994e+003,9.912309e+001
3.896529e+003,9.893478e+001
3.909065e+003,9.908991e+001
3.921600e+003,9.921861e+001
3.934135e+003,9.902412e+001
3.946670e+003,9.909016e+001
3.959206e+003,9.898671e+001
3.971741e+003,9.908770e+001
3.984276e+003,9.913405e+001
3.996811e+003,9.892200e+001
4.000668e+003,0.000000e+000