File: FTIR Data (PCL)/All Data/PCL_NaOH_PDA_2_2.CSV
3.991989e+002,0.000000e+000
4.117341e+002,0.000000e+000
4.242693e+002,0.000000e+000
4.368046e+002,0.000000e+000
4.493398e+002,0.000000e+000
4.618751e+002,0.000000e+000
4.744103e+002,0.000000e+000
4.869455e+002,0.000000e+000
4.994808e+002,0.000000e+000
5.120160e+002,0.000000e+000
5.245512e+002,0.000000e+000
5.370865e+002,0.000000e+000
5.496217e+002,8.559561e+001
5.621569e+002,8.650356e+001
5.746922e+002,7.577273e+001
5.872274e+002,7.740582e+001
5.997626e+002,8.306164e+001
6.122979e+002,8.468489e+001
6.248331e+002,8.395804e+001
6.373683e+002,8.497234e+001
6.499036e+002,8.379766e+001
6.624388e+002,8.421532e+001
6.749741e+002,8.359175e+001
6.875093e+002,8.187048e+001
7.000445e+002,7.730767e+001
7.125798e+002,7.295259e+001
7.251150e+002,6.324124e+001
7.376502e+002,7.068502e+001
7.501855e+002,8.443199e+001
7.627207e+002,8.605286e+001
7.752559e+002,8.413472e+001
7.877911e+002,8.630825e+001
8.003264e+002,8.619286e+001
8.128616e+002,8.616642e+001
8.253969e+002,8.571153e+001
8.379321e+002,7.900498e+001
8.504673e+002,8.444873e+001
8.630026e+002,8.407653e+001
8.755378e+002,8.364958e+001
8.880731e+002,8.304269e+001
9.006083e+002,8.242507e+001
9.131435e+002,8.014346e+001
9.256788e+002,7.467420e+001
9.382140e+002,7.139426e+001
9.507492e+002,6.685886e+001
9.632844e+002,5.764245e+001
9.758197e+002,7.440074e+001
9.883549e+002,7.644325e+001
1.000890e+003,7.584658e+001
1.013425e+003,7.327768e+001
1.025961e+003,6.751250e+001
1.038496e+003,5.408091e+001
1.051031e+003,5.790459e+001
1.063566e+003,6.428242e+001
1.076102e+003,7.134254e+001
1.088637e+003,6.212331e+001
1.101172e+003,5.731785e+001
1.113707e+003,6.337968e+001
1.126243e+003,6.725221e+001
1.138778e+003,5.197834e+001
1.151313e+003,3.067934e+001
1.163848e+003,2.459629e+001
1.176383e+003,2.914631e+001
1.188919e+003,3.653074e+001
1.201454e+003,6.568558e+001
1.213989e+003,7.034349e+001
1.226524e+003,6.229821e+001
1.239060e+003,3.964434e+001
1.251595e+003,6.990629e+001
1.264130e+003,7.705338e+001
1.276665e+003,7.529450e+001
1.289201e+003,6.343808e+001
1.301736e+003,7.312205e+001
1.314271e+003,8.209012e+001
1.326806e+003,8.340459e+001
1.339342e+003,8.431057e+001
1.351877e+003,7.372386e+001
1.364412e+003,5.967932e+001
1.376947e+003,7.310180e+001
1.389482e+003,8.092877e+001
1.402018e+003,8.050181e+001
1.414553e+003,7.549149e+001
1.427088e+003,8.533340e+001
1.439623e+003,8.567263e+001
1.452159e+003,8.457818e+001
1.464694e+003,7.811855e+001
1.477229e+003,8.193233e+001
1.489764e+003,9.297639e+001
1.502300e+003,9.339938e+001
1.514835e+003,9.356765e+001
1.527370e+003,9.400137e+001
1.539905e+003,9.453955e+001
1.552441e+003,9.406920e+001
1.564976e+003,9.398550e+001
1.577511e+003,9.368925e+001
1.590046e+003,9.314008e+001
1.602581e+003,9.255249e+001
1.615117e+003,9.184248e+001
1.627652e+003,9.113699e+001
1.640187e+003,9.058414e+001
1.652722e+003,8.988660e+001
1.665258e+003,8.790414e+001
1.677793e+003,8.233913e+001
1.690328e+003,7.339337e+001
1.702863e+003,6.246452e+001
1.715399e+003,2.911898e+001
1.727934e+003,3.427670e+001
1.740469e+003,6.479147e+001
1.753004e+003,9.021608e+001
1.765539e+003,9.400813e+001
1.778075e+003,9.560239e+001
1.790610e+003,9.678344e+001
1.803145e+003,9.757864e+001
1.815680e+003,9.815531e+001
1.828216e+003,9.835835e+001
1.840751e+003,9.827087e+001
1.853286e+003,9.866916e+001
1.865821e+003,9.866899e+001
1.878357e+003,9.865669e+001
1.890892e+003,9.865549e+001
1.903427e+003,9.856437e+001
1.915962e+003,9.857394e+001
1.928498e+003,9.863812e+001
1.941033e+003,9.879144e+001
1.953568e+003,9.878136e+001
1.966103e+003,9.880836e+001
1.978638e+003,9.816553e+001
1.991174e+003,9.866701e+001
2.003709e+003,9.858064e+001
2.016244e+003,9.850613e+001
2.028779e+003,9.857585e+001
2.041315e+003,9.844446e+001
2.053850e+003,9.856255e+001
2.066385e+003,9.862239e+001
2.078920e+003,9.829462e+001
2.091456e+003,9.838380e+001
2.103991e+003,9.824966e+001
2.116526e+003,9.851196e+001
2.129061e+003,9.885430e+001
2.141596e+003,9.878051e+001
2.154132e+003,9.890600e+001
2.166667e+003,9.830222e+001
2.179202e+003,9.883866e+001
2.191738e+003,9.862306e+001
2.204273e+003,9.880282e+001
2.216808e+003,9.841254e+001
2.229343e+003,9.859200e+001
2.241878e+003,9.863797e+001
2.254414e+003,9.871111e+001
2.266949e+003,9.854994e+001
2.279484e+003,9.836956e+001
2.292019e+003,9.786694e+001
2.304555e+003,9.716266e+001
2.317090e+003,9.549187e+001
2.329625e+003,9.375456e+001
2.342160e+003,9.289883e+001
2.354696e+003,9.228985e+001
2.367231e+003,9.252803e+001
2.379766e+003,9.715883e+001
2.392301e+003,9.865821e+001
2.404836e+003,9.863007e+001
2.417372e+003,9.852533e+001
2.429907e+003,9.865116e+001
2.442442e+003,9.860519e+001
2.454977e+003,9.850162e+001
2.467513e+003,9.851376e+001
2.480048e+003,9.849491e+001
2.492583e+003,9.857258e+001
2.505118e+003,9.852675e+001
2.517654e+003,9.840226e+001
2.530189e+003,9.833415e+001
2.542724e+003,9.831995e+001
2.555259e+003,9.836646e+001
2.567794e+003,9.824612e+001
2.580330e+003,9.813226e+001
2.592865e+003,9.815041e+001
2.605400e+003,9.812679e+001
2.617936e+003,9.802612e+001
2.630471e+003,9.799243e+001
2.643006e+003,9.782922e+001
2.655541e+003,9.778651e+001
2.668076e+003,9.791753e+001
2.680612e+003,9.782700e+001
2.693147e+003,9.780178e+001
2.705682e+003,9.776073e+001
2.718217e+003,9.761430e+001
2.730753e+003,9.761098e+001
2.743288e+003,9.755564e+001
2.755823e+003,9.746976e+001
2.768358e+003,9.726939e+001
2.780894e+003,9.718182e+001
2.793429e+003,9.696873e+001
2.805964e+003,9.666199e+001
2.818499e+003,9.588401e+001
2.831034e+003,9.489926e+001
2.843570e+003,9.211588e+001
2.856105e+003,8.418552e+001
2.868640e+003,8.080429e+001
2.881175e+003,8.768300e+001
2.893711e+003,8.390501e+001
2.906246e+003,8.293655e+001
2.918781e+003,7.860340e+001
2.931316e+003,7.408092e+001
2.943852e+003,7.166644e+001
2.956387e+003,7.674061e+001
2.968922e+003,8.627473e+001
2.981457e+003,9.275157e+001
2.993992e+003,9.539938e+001
3.006528e+003,9.639775e+001
3.019063e+003,9.675687e+001
3.031598e+003,9.688425e+001
3.044134e+003,9.694691e+001
3.056669e+003,9.694949e+001
3.069204e+003,9.704150e+001
3.081739e+003,9.696881e+001
3.094274e+003,9.699324e+001
3.106810e+003,9.693795e+001
3.119345e+003,9.699391e+001
3.131880e+003,9.688167e+001
3.144415e+003,9.687332e+001
3.156950e+003,9.691311e+001
3.169486e+003,9.687558e+001
3.182021e+003,9.685371e+001
3.194556e+003,9.678307e+001
3.207092e+003,9.681577e+001
3.219627e+003,9.684763e+001
3.232162e+003,9.675449e+001
3.244697e+003,9.667022e+001
3.257232e+003,9.668739e+001
3.269768e+003,9.669943e+001
3.282303e+003,9.681387e+001
3.294838e+003,9.668665e+001
3.307373e+003,9.668324e+001
3.319909e+003,9.679304e+001
3.332444e+003,9.675071e+001
3.344979e+003,9.676696e+001
3.357514e+003,9.679267e+001
3.370050e+003,9.680999e+001
3.382585e+003,9.693515e+001
3.395120e+003,9.682432e+001
3.407655e+003,9.684117e+001
3.420190e+003,9.678568e+001
3.432726e+003,9.649219e+001
3.445261e+003,9.653794e+001
3.457796e+003,9.681232e+001
3.470332e+003,9.704009e+001
3.482867e+003,9.734768e+001
3.495402e+003,9.733561e+001
3.507937e+003,9.762509e+001
3.520472e+003,9.761102e+001
3.533008e+003,9.772899e+001
3.545543e+003,9.775645e+001
3.558078e+003,9.789562e+001
3.570613e+003,9.809481e+001
3.583148e+003,9.803859e+001
3.595684e+003,9.817699e+001
3.608219e+003,9.820167e+001
3.620754e+003,9.846197e+001
3.633290e+003,9.829616e+001
3.645825e+003,9.893002e+001
3.658360e+003,9.898318e+001
3.670895e+003,9.927220e+001
3.683430e+003,9.901801e+001
3.695966e+003,9.904083e+001
3.708501e+003,9.880423e+001
3.721036e+003,9.899110e+001
3.733571e+003,9.898978e+001
3.746107e+003,9.931917e+001
3.758642e+003,9.932060e+001
3.771177e+003,9.932421e+001
3.783712e+003,9.930385e+001
3.796248e+003,9.940100e+001
3.808783e+003,9.941577e+001
3.821318e+003,9.936477e+001
3.833853e+003,9.935080e+001
3.846388e+003,9.918697e+001
3.858924e+003,9.918333e+001
3.871459e+003,9.937827e+001
3.883994e+003,9.916299e+001
3.896529e+003,9.909116e+001
3.909065e+003,9.931960e+001
3.921600e+003,9.929511e+001
3.934135e+003,9.926490e+001
3.946670e+003,9.925674e+001
3.959206e+003,9.921539e+001
3.971741e+003,9.919772e+001
3.984276e+003,9.920753e+001
3.996811e+003,9.918454e+001
4.000668e+003,0.000000e+000