File: FTIR Data (PCL)/All Data/PCL_NaOH_PDA_1_2.CSV
3.991989e+002,0.000000e+000
4.117341e+002,0.000000e+000
4.242693e+002,0.000000e+000
4.368046e+002,0.000000e+000
4.493398e+002,0.000000e+000
4.618751e+002,0.000000e+000
4.744103e+002,0.000000e+000
4.869455e+002,0.000000e+000
4.994808e+002,0.000000e+000
5.120160e+002,0.000000e+000
5.245512e+002,0.000000e+000
5.370865e+002,0.000000e+000
5.496217e+002,8.403262e+001
5.621569e+002,8.568182e+001
5.746922e+002,8.099544e+001
5.872274e+002,7.770180e+001
5.997626e+002,8.369068e+001
6.122979e+002,8.519011e+001
6.248331e+002,8.490498e+001
6.373683e+002,8.585802e+001
6.499036e+002,8.511420e+001
6.624388e+002,8.542436e+001
6.749741e+002,8.464297e+001
6.875093e+002,8.318040e+001
7.000445e+002,7.836053e+001
7.125798e+002,7.426069e+001
7.251150e+002,6.505836e+001
7.376502e+002,7.127188e+001
7.501855e+002,8.522922e+001
7.627207e+002,8.680452e+001
7.752559e+002,8.470787e+001
7.877911e+002,8.696449e+001
8.003264e+002,8.689658e+001
8.128616e+002,8.680846e+001
8.253969e+002,8.625052e+001
8.379321e+002,7.985751e+001
8.504673e+002,8.525981e+001
8.630026e+002,8.477467e+001
8.755378e+002,8.440308e+001
8.880731e+002,8.393291e+001
9.006083e+002,8.334119e+001
9.131435e+002,8.121574e+001
9.256788e+002,7.581200e+001
9.382140e+002,7.310209e+001
9.507492e+002,6.909437e+001
9.632844e+002,6.073454e+001
9.758197e+002,7.590802e+001
9.883549e+002,7.792922e+001
1.000890e+003,7.745236e+001
1.013425e+003,7.511524e+001
1.025961e+003,7.002889e+001
1.038496e+003,5.817971e+001
1.051031e+003,6.083944e+001
1.063566e+003,6.681149e+001
1.076102e+003,7.321657e+001
1.088637e+003,6.468377e+001
1.101172e+003,6.036221e+001
1.113707e+003,6.603918e+001
1.126243e+003,6.978326e+001
1.138778e+003,5.601384e+001
1.151313e+003,3.605338e+001
1.163848e+003,2.926444e+001
1.176383e+003,3.318987e+001
1.188919e+003,4.019599e+001
1.201454e+003,6.726643e+001
1.213989e+003,7.175112e+001
1.226524e+003,6.475898e+001
1.239060e+003,4.361314e+001
1.251595e+003,7.167661e+001
1.264130e+003,7.823623e+001
1.276665e+003,7.669108e+001
1.289201e+003,6.632024e+001
1.301736e+003,7.460382e+001
1.314271e+003,8.293011e+001
1.326806e+003,8.421825e+001
1.339342e+003,8.516588e+001
1.351877e+003,7.533871e+001
1.364412e+003,6.281068e+001
1.376947e+003,7.510123e+001
1.389482e+003,8.199143e+001
1.402018e+003,8.162843e+001
1.414553e+003,7.612806e+001
1.427088e+003,8.586537e+001
1.439623e+003,8.625902e+001
1.452159e+003,8.502954e+001
1.464694e+003,7.876474e+001
1.477229e+003,8.212674e+001
1.489764e+003,9.317587e+001
1.502300e+003,9.361773e+001
1.514835e+003,9.381427e+001
1.527370e+003,9.425140e+001
1.539905e+003,9.468246e+001
1.552441e+003,9.446384e+001
1.564976e+003,9.433601e+001
1.577511e+003,9.398946e+001
1.590046e+003,9.352232e+001
1.602581e+003,9.290144e+001
1.615117e+003,9.230298e+001
1.627652e+003,9.159122e+001
1.640187e+003,9.109249e+001
1.652722e+003,9.047612e+001
1.665258e+003,8.834557e+001
1.677793e+003,8.282005e+001
1.690328e+003,7.395953e+001
1.702863e+003,6.354684e+001
1.715399e+003,3.189121e+001
1.727934e+003,3.590496e+001
1.740469e+003,6.617683e+001
1.753004e+003,9.076974e+001
1.765539e+003,9.429647e+001
1.778075e+003,9.580200e+001
1.790610e+003,9.692595e+001
1.803145e+003,9.765837e+001
1.815680e+003,9.819062e+001
1.828216e+003,9.838342e+001
1.840751e+003,9.842093e+001
1.853286e+003,9.861828e+001
1.865821e+003,9.870739e+001
1.878357e+003,9.873009e+001
1.890892e+003,9.865264e+001
1.903427e+003,9.863998e+001
1.915962e+003,9.863383e+001
1.928498e+003,9.883397e+001
1.941033e+003,9.882725e+001
1.953568e+003,9.885896e+001
1.966103e+003,9.862175e+001
1.978638e+003,9.824422e+001
1.991174e+003,9.874999e+001
2.003709e+003,9.890028e+001
2.016244e+003,9.888293e+001
2.028779e+003,9.847354e+001
2.041315e+003,9.842716e+001
2.053850e+003,9.868542e+001
2.066385e+003,9.849764e+001
2.078920e+003,9.828115e+001
2.091456e+003,9.842428e+001
2.103991e+003,9.841923e+001
2.116526e+003,9.860558e+001
2.129061e+003,9.899048e+001
2.141596e+003,9.880291e+001
2.154132e+003,9.901179e+001
2.166667e+003,9.855906e+001
2.179202e+003,9.879191e+001
2.191738e+003,9.859043e+001
2.204273e+003,9.877847e+001
2.216808e+003,9.861301e+001
2.229343e+003,9.876497e+001
2.241878e+003,9.867001e+001
2.254414e+003,9.877485e+001
2.266949e+003,9.876801e+001
2.279484e+003,9.853116e+001
2.292019e+003,9.841705e+001
2.304555e+003,9.852047e+001
2.317090e+003,9.837183e+001
2.329625e+003,9.856672e+001
2.342160e+003,9.833462e+001
2.354696e+003,9.850003e+001
2.367231e+003,9.880270e+001
2.379766e+003,9.873632e+001
2.392301e+003,9.876427e+001
2.404836e+003,9.863373e+001
2.417372e+003,9.852933e+001
2.429907e+003,9.861422e+001
2.442442e+003,9.863203e+001
2.454977e+003,9.860814e+001
2.467513e+003,9.856941e+001
2.480048e+003,9.858190e+001
2.492583e+003,9.855897e+001
2.505118e+003,9.861810e+001
2.517654e+003,9.854320e+001
2.530189e+003,9.836523e+001
2.542724e+003,9.838550e+001
2.555259e+003,9.841441e+001
2.567794e+003,9.835852e+001
2.580330e+003,9.821596e+001
2.592865e+003,9.825903e+001
2.605400e+003,9.821912e+001
2.617936e+003,9.814999e+001
2.630471e+003,9.812527e+001
2.643006e+003,9.798457e+001
2.655541e+003,9.794511e+001
2.668076e+003,9.803492e+001
2.680612e+003,9.795483e+001
2.693147e+003,9.796744e+001
2.705682e+003,9.792336e+001
2.718217e+003,9.778151e+001
2.730753e+003,9.774837e+001
2.743288e+003,9.770332e+001
2.755823e+003,9.765889e+001
2.768358e+003,9.742615e+001
2.780894e+003,9.737527e+001
2.793429e+003,9.711815e+001
2.805964e+003,9.684744e+001
2.818499e+003,9.607674e+001
2.831034e+003,9.521211e+001
2.843570e+003,9.270432e+001
2.856105e+003,8.517763e+001
2.868640e+003,8.154243e+001
2.881175e+003,8.831367e+001
2.893711e+003,8.468365e+001
2.906246e+003,8.400445e+001
2.918781e+003,8.011966e+001
2.931316e+003,7.548726e+001
2.943852e+003,7.288307e+001
2.956387e+003,7.763216e+001
2.968922e+003,8.706430e+001
2.981457e+003,9.320950e+001
2.993992e+003,9.577682e+001
3.006528e+003,9.672351e+001
3.019063e+003,9.699140e+001
3.031598e+003,9.713229e+001
3.044134e+003,9.724316e+001
3.056669e+003,9.727397e+001
3.069204e+003,9.725951e+001
3.081739e+003,9.724567e+001
3.094274e+003,9.719664e+001
3.106810e+003,9.725784e+001
3.119345e+003,9.725059e+001
3.131880e+003,9.723482e+001
3.144415e+003,9.718638e+001
3.156950e+003,9.719610e+001
3.169486e+003,9.715659e+001
3.182021e+003,9.715335e+001
3.194556e+003,9.718304e+001
3.207092e+003,9.714262e+001
3.219627e+003,9.715314e+001
3.232162e+003,9.715298e+001
3.244697e+003,9.709528e+001
3.257232e+003,9.708279e+001
3.269768e+003,9.706686e+001
3.282303e+003,9.711602e+001
3.294838e+003,9.708234e+001
3.307373e+003,9.706425e+001
3.319909e+003,9.706874e+001
3.332444e+003,9.707094e+001
3.344979e+003,9.701323e+001
3.357514e+003,9.715944e+001
3.370050e+003,9.712063e+001
3.382585e+003,9.725223e+001
3.395120e+003,9.720043e+001
3.407655e+003,9.725658e+001
3.420190e+003,9.708549e+001
3.432726e+003,9.675704e+001
3.445261e+003,9.687450e+001
3.457796e+003,9.710641e+001
3.470332e+003,9.752714e+001
3.482867e+003,9.769894e+001
3.495402e+003,9.761040e+001
3.507937e+003,9.788477e+001
3.520472e+003,9.797617e+001
3.533008e+003,9.803793e+001
3.545543e+003,9.798388e+001
3.558078e+003,9.823588e+001
3.570613e+003,9.824346e+001
3.583148e+003,9.839210e+001
3.595684e+003,9.857835e+001
3.608219e+003,9.851125e+001
3.620754e+003,9.877269e+001
3.633290e+003,9.877512e+001
3.645825e+003,9.908364e+001
3.658360e+003,9.905917e+001
3.670895e+003,9.937203e+001
3.683430e+003,9.929240e+001
3.695966e+003,9.937163e+001
3.708501e+003,9.951930e+001
3.721036e+003,9.944242e+001
3.733571e+003,9.963421e+001
3.746107e+003,9.949192e+001
3.758642e+003,9.939459e+001
3.771177e+003,9.946390e+001
3.783712e+003,9.941171e+001
3.796248e+003,9.963896e+001
3.808783e+003,9.958898e+001
3.821318e+003,9.959721e+001
3.833853e+003,9.943108e+001
3.846388e+003,9.938692e+001
3.858924e+003,9.936312e+001
3.871459e+003,9.939825e+001
3.883994e+003,9.942867e+001
3.896529e+003,9.928002e+001
3.909065e+003,9.935188e+001
3.921600e+003,9.935888e+001
3.934135e+003,9.932620e+001
3.946670e+003,9.937429e+001
3.959206e+003,9.927727e+001
3.971741e+003,9.940227e+001
3.984276e+003,9.941755e+001
3.996811e+003,9.931702e+001
4.000668e+003,0.000000e+000