File: FTIR Data (PCL)/All Data/PCL_NaOH_3_2.CSV
3.991989e+002,0.000000e+000
4.117341e+002,0.000000e+000
4.242693e+002,0.000000e+000
4.368046e+002,0.000000e+000
4.493398e+002,0.000000e+000
4.618751e+002,0.000000e+000
4.744103e+002,0.000000e+000
4.869455e+002,0.000000e+000
4.994808e+002,0.000000e+000
5.120160e+002,0.000000e+000
5.245512e+002,0.000000e+000
5.370865e+002,0.000000e+000
5.496217e+002,8.355971e+001
5.621569e+002,8.502321e+001
5.746922e+002,7.957481e+001
5.872274e+002,7.850229e+001
5.997626e+002,8.390507e+001
6.122979e+002,8.467919e+001
6.248331e+002,8.557870e+001
6.373683e+002,8.600450e+001
6.499036e+002,8.561906e+001
6.624388e+002,8.587742e+001
6.749741e+002,8.541368e+001
6.875093e+002,8.356957e+001
7.000445e+002,7.859637e+001
7.125798e+002,7.395545e+001
7.251150e+002,6.395366e+001
7.376502e+002,7.200961e+001
7.501855e+002,8.556373e+001
7.627207e+002,8.733802e+001
7.752559e+002,8.533286e+001
7.877911e+002,8.751726e+001
8.003264e+002,8.748981e+001
8.128616e+002,8.745944e+001
8.253969e+002,8.707302e+001
8.379321e+002,8.035666e+001
8.504673e+002,8.561792e+001
8.630026e+002,8.518868e+001
8.755378e+002,8.478225e+001
8.880731e+002,8.413379e+001
9.006083e+002,8.332716e+001
9.131435e+002,8.103354e+001
9.256788e+002,7.541298e+001
9.382140e+002,7.196213e+001
9.507492e+002,6.774437e+001
9.632844e+002,5.770300e+001
9.758197e+002,7.521369e+001
9.883549e+002,7.714942e+001
1.000890e+003,7.655568e+001
1.013425e+003,7.403276e+001
1.025961e+003,6.829238e+001
1.038496e+003,5.433554e+001
1.051031e+003,5.877644e+001
1.063566e+003,6.461058e+001
1.076102e+003,7.208771e+001
1.088637e+003,6.283216e+001
1.101172e+003,5.816558e+001
1.113707e+003,6.463453e+001
1.126243e+003,6.875355e+001
1.138778e+003,5.343672e+001
1.151313e+003,3.164131e+001
1.163848e+003,2.524328e+001
1.176383e+003,2.889081e+001
1.188919e+003,3.516366e+001
1.201454e+003,6.628576e+001
1.213989e+003,7.144518e+001
1.226524e+003,6.325314e+001
1.239060e+003,3.948631e+001
1.251595e+003,7.052195e+001
1.264130e+003,7.855489e+001
1.276665e+003,7.701935e+001
1.289201e+003,6.481083e+001
1.301736e+003,7.450430e+001
1.314271e+003,8.379222e+001
1.326806e+003,8.514899e+001
1.339342e+003,8.615572e+001
1.351877e+003,7.525025e+001
1.364412e+003,6.043124e+001
1.376947e+003,7.381204e+001
1.389482e+003,8.228862e+001
1.402018e+003,8.160311e+001
1.414553e+003,7.667625e+001
1.427088e+003,8.689228e+001
1.439623e+003,8.748051e+001
1.452159e+003,8.656029e+001
1.464694e+003,7.981631e+001
1.477229e+003,8.368182e+001
1.489764e+003,9.553302e+001
1.502300e+003,9.647066e+001
1.514835e+003,9.679260e+001
1.527370e+003,9.691309e+001
1.539905e+003,9.710117e+001
1.552441e+003,9.658116e+001
1.564976e+003,9.643916e+001
1.577511e+003,9.634973e+001
1.590046e+003,9.610965e+001
1.602581e+003,9.569982e+001
1.615117e+003,9.508089e+001
1.627652e+003,9.426115e+001
1.640187e+003,9.342148e+001
1.652722e+003,9.243661e+001
1.665258e+003,8.999378e+001
1.677793e+003,8.387465e+001
1.690328e+003,7.439458e+001
1.702863e+003,6.284788e+001
1.715399e+003,2.762832e+001
1.727934e+003,3.403509e+001
1.740469e+003,6.502507e+001
1.753004e+003,9.055272e+001
1.765539e+003,9.415717e+001
1.778075e+003,9.568821e+001
1.790610e+003,9.691215e+001
1.803145e+003,9.762308e+001
1.815680e+003,9.820403e+001
1.828216e+003,9.836542e+001
1.840751e+003,9.829811e+001
1.853286e+003,9.862663e+001
1.865821e+003,9.874972e+001
1.878357e+003,9.864066e+001
1.890892e+003,9.865762e+001
1.903427e+003,9.857526e+001
1.915962e+003,9.850985e+001
1.928498e+003,9.863734e+001
1.941033e+003,9.873827e+001
1.953568e+003,9.862502e+001
1.966103e+003,9.872661e+001
1.978638e+003,9.809852e+001
1.991174e+003,9.875610e+001
2.003709e+003,9.847089e+001
2.016244e+003,9.876868e+001
2.028779e+003,9.865176e+001
2.041315e+003,9.849518e+001
2.053850e+003,9.874735e+001
2.066385e+003,9.843037e+001
2.078920e+003,9.823457e+001
2.091456e+003,9.830602e+001
2.103991e+003,9.829631e+001
2.116526e+003,9.846215e+001
2.129061e+003,9.897319e+001
2.141596e+003,9.884010e+001
2.154132e+003,9.878345e+001
2.166667e+003,9.848101e+001
2.179202e+003,9.882587e+001
2.191738e+003,9.865993e+001
2.204273e+003,9.869332e+001
2.216808e+003,9.858511e+001
2.229343e+003,9.866389e+001
2.241878e+003,9.874439e+001
2.254414e+003,9.874917e+001
2.266949e+003,9.874810e+001
2.279484e+003,9.845743e+001
2.292019e+003,9.832079e+001
2.304555e+003,9.819325e+001
2.317090e+003,9.775709e+001
2.329625e+003,9.751292e+001
2.342160e+003,9.726597e+001
2.354696e+003,9.721684e+001
2.367231e+003,9.733501e+001
2.379766e+003,9.840880e+001
2.392301e+003,9.874585e+001
2.404836e+003,9.874298e+001
2.417372e+003,9.872559e+001
2.429907e+003,9.882153e+001
2.442442e+003,9.872988e+001
2.454977e+003,9.868906e+001
2.467513e+003,9.871034e+001
2.480048e+003,9.869224e+001
2.492583e+003,9.874364e+001
2.505118e+003,9.882613e+001
2.517654e+003,9.870261e+001
2.530189e+003,9.851085e+001
2.542724e+003,9.860780e+001
2.555259e+003,9.866666e+001
2.567794e+003,9.865033e+001
2.580330e+003,9.852612e+001
2.592865e+003,9.858326e+001
2.605400e+003,9.853106e+001
2.617936e+003,9.842587e+001
2.630471e+003,9.842798e+001
2.643006e+003,9.822781e+001
2.655541e+003,9.823792e+001
2.668076e+003,9.834370e+001
2.680612e+003,9.825502e+001
2.693147e+003,9.825323e+001
2.705682e+003,9.822691e+001
2.718217e+003,9.816354e+001
2.730753e+003,9.818599e+001
2.743288e+003,9.807285e+001
2.755823e+003,9.802583e+001
2.768358e+003,9.781824e+001
2.780894e+003,9.776847e+001
2.793429e+003,9.757714e+001
2.805964e+003,9.728799e+001
2.818499e+003,9.652726e+001
2.831034e+003,9.558105e+001
2.843570e+003,9.291965e+001
2.856105e+003,8.492693e+001
2.868640e+003,8.116277e+001
2.881175e+003,8.845562e+001
2.893711e+003,8.448027e+001
2.906246e+003,8.358263e+001
2.918781e+003,7.923605e+001
2.931316e+003,7.448165e+001
2.943852e+003,7.143985e+001
2.956387e+003,7.696869e+001
2.968922e+003,8.688900e+001
2.981457e+003,9.368330e+001
2.993992e+003,9.639341e+001
3.006528e+003,9.749332e+001
3.019063e+003,9.784985e+001
3.031598e+003,9.804942e+001
3.044134e+003,9.810743e+001
3.056669e+003,9.821856e+001
3.069204e+003,9.827216e+001
3.081739e+003,9.829613e+001
3.094274e+003,9.831220e+001
3.106810e+003,9.828058e+001
3.119345e+003,9.837252e+001
3.131880e+003,9.838424e+001
3.144415e+003,9.843116e+001
3.156950e+003,9.839909e+001
3.169486e+003,9.832182e+001
3.182021e+003,9.840284e+001
3.194556e+003,9.836536e+001
3.207092e+003,9.838699e+001
3.219627e+003,9.842095e+001
3.232162e+003,9.841225e+001
3.244697e+003,9.827344e+001
3.257232e+003,9.830967e+001
3.269768e+003,9.832253e+001
3.282303e+003,9.829303e+001
3.294838e+003,9.823868e+001
3.307373e+003,9.826520e+001
3.319909e+003,9.826862e+001
3.332444e+003,9.825177e+001
3.344979e+003,9.826247e+001
3.357514e+003,9.831215e+001
3.370050e+003,9.836073e+001
3.382585e+003,9.837614e+001
3.395120e+003,9.833456e+001
3.407655e+003,9.823942e+001
3.420190e+003,9.801964e+001
3.432726e+003,9.769659e+001
3.445261e+003,9.776394e+001
3.457796e+003,9.798872e+001
3.470332e+003,9.834515e+001
3.482867e+003,9.846574e+001
3.495402e+003,9.832002e+001
3.507937e+003,9.842461e+001
3.520472e+003,9.857691e+001
3.533008e+003,9.853748e+001
3.545543e+003,9.848328e+001
3.558078e+003,9.864739e+001
3.570613e+003,9.865263e+001
3.583148e+003,9.876180e+001
3.595684e+003,9.889778e+001
3.608219e+003,9.863130e+001
3.620754e+003,9.893143e+001
3.633290e+003,9.883999e+001
3.645825e+003,9.923293e+001
3.658360e+003,9.898907e+001
3.670895e+003,9.931882e+001
3.683430e+003,9.912056e+001
3.695966e+003,9.913315e+001
3.708501e+003,9.904401e+001
3.721036e+003,9.910931e+001
3.733571e+003,9.929807e+001
3.746107e+003,9.922398e+001
3.758642e+003,9.923205e+001
3.771177e+003,9.926534e+001
3.783712e+003,9.915909e+001
3.796248e+003,9.930851e+001
3.808783e+003,9.925114e+001
3.821318e+003,9.925894e+001
3.833853e+003,9.916630e+001
3.846388e+003,9.914925e+001
3.858924e+003,9.902184e+001
3.871459e+003,9.918158e+001
3.883994e+003,9.907352e+001
3.896529e+003,9.908186e+001
3.909065e+003,9.905798e+001
3.921600e+003,9.928833e+001
3.934135e+003,9.901159e+001
3.946670e+003,9.905898e+001
3.959206e+003,9.909660e+001
3.971741e+003,9.906718e+001
3.984276e+003,9.916132e+001
3.996811e+003,9.909494e+001
4.000668e+003,0.000000e+000