File: FTIR Data (PCL)/All Data/PCL_NaOH_PDA_1_3.CSV
3.991989e+002,0.000000e+000
4.117341e+002,0.000000e+000
4.242693e+002,0.000000e+000
4.368046e+002,0.000000e+000
4.493398e+002,0.000000e+000
4.618751e+002,0.000000e+000
4.744103e+002,0.000000e+000
4.869455e+002,0.000000e+000
4.994808e+002,0.000000e+000
5.120160e+002,0.000000e+000
5.245512e+002,0.000000e+000
5.370865e+002,0.000000e+000
5.496217e+002,#NaN
5.621569e+002,#NaN
5.746922e+002,#NaN
5.872274e+002,#NaN
5.997626e+002,#NaN
6.122979e+002,#NaN
6.248331e+002,#NaN
6.373683e+002,#NaN
6.499036e+002,#NaN
6.624388e+002,#NaN
6.749741e+002,#NaN
6.875093e+002,#NaN
7.000445e+002,#NaN
7.125798e+002,#NaN
7.251150e+002,#NaN
7.376502e+002,#NaN
7.501855e+002,#NaN
7.627207e+002,#NaN
7.752559e+002,#NaN
7.877911e+002,#NaN
8.003264e+002,#NaN
8.128616e+002,#NaN
8.253969e+002,#NaN
8.379321e+002,#NaN
8.504673e+002,#NaN
8.630026e+002,#NaN
8.755378e+002,#NaN
8.880731e+002,#NaN
9.006083e+002,#NaN
9.131435e+002,#NaN
9.256788e+002,#NaN
9.382140e+002,#NaN
9.507492e+002,#NaN
9.632844e+002,#NaN
9.758197e+002,#NaN
9.883549e+002,#NaN
1.000890e+003,#NaN
1.013425e+003,#NaN
1.025961e+003,#NaN
1.038496e+003,#NaN
1.051031e+003,#NaN
1.063566e+003,#NaN
1.076102e+003,#NaN
1.088637e+003,#NaN
1.101172e+003,#NaN
1.113707e+003,#NaN
1.126243e+003,#NaN
1.138778e+003,#NaN
1.151313e+003,#NaN
1.163848e+003,#NaN
1.176383e+003,#NaN
1.188919e+003,#NaN
1.201454e+003,#NaN
1.213989e+003,#NaN
1.226524e+003,#NaN
1.239060e+003,#NaN
1.251595e+003,#NaN
1.264130e+003,#NaN
1.276665e+003,#NaN
1.289201e+003,#NaN
1.301736e+003,#NaN
1.314271e+003,#NaN
1.326806e+003,#NaN
1.339342e+003,#NaN
1.351877e+003,#NaN
1.364412e+003,#NaN
1.376947e+003,#NaN
1.389482e+003,#NaN
1.402018e+003,#NaN
1.414553e+003,#NaN
1.427088e+003,#NaN
1.439623e+003,#NaN
1.452159e+003,#NaN
1.464694e+003,#NaN
1.477229e+003,#NaN
1.489764e+003,#NaN
1.502300e+003,#NaN
1.514835e+003,#NaN
1.527370e+003,#NaN
1.539905e+003,#NaN
1.552441e+003,#NaN
1.564976e+003,#NaN
1.577511e+003,#NaN
1.590046e+003,#NaN
1.602581e+003,#NaN
1.615117e+003,#NaN
1.627652e+003,#NaN
1.640187e+003,#NaN
1.652722e+003,#NaN
1.665258e+003,#NaN
1.677793e+003,#NaN
1.690328e+003,#NaN
1.702863e+003,#NaN
1.715399e+003,#NaN
1.727934e+003,#NaN
1.740469e+003,#NaN
1.753004e+003,#NaN
1.765539e+003,#NaN
1.778075e+003,#NaN
1.790610e+003,#NaN
1.803145e+003,#NaN
1.815680e+003,#NaN
1.828216e+003,#NaN
1.840751e+003,#NaN
1.853286e+003,#NaN
1.865821e+003,#NaN
1.878357e+003,#NaN
1.890892e+003,#NaN
1.903427e+003,#NaN
1.915962e+003,#NaN
1.928498e+003,#NaN
1.941033e+003,#NaN
1.953568e+003,#NaN
1.966103e+003,#NaN
1.978638e+003,#NaN
1.991174e+003,#NaN
2.003709e+003,#NaN
2.016244e+003,#NaN
2.028779e+003,#NaN
2.041315e+003,#NaN
2.053850e+003,#NaN
2.066385e+003,#NaN
2.078920e+003,#NaN
2.091456e+003,#NaN
2.103991e+003,#NaN
2.116526e+003,#NaN
2.129061e+003,#NaN
2.141596e+003,#NaN
2.154132e+003,#NaN
2.166667e+003,#NaN
2.179202e+003,#NaN
2.191738e+003,#NaN
2.204273e+003,#NaN
2.216808e+003,#NaN
2.229343e+003,#NaN
2.241878e+003,#NaN
2.254414e+003,#NaN
2.266949e+003,#NaN
2.279484e+003,#NaN
2.292019e+003,#NaN
2.304555e+003,#NaN
2.317090e+003,#NaN
2.329625e+003,#NaN
2.342160e+003,#NaN
2.354696e+003,#NaN
2.367231e+003,#NaN
2.379766e+003,#NaN
2.392301e+003,#NaN
2.404836e+003,#NaN
2.417372e+003,#NaN
2.429907e+003,#NaN
2.442442e+003,#NaN
2.454977e+003,#NaN
2.467513e+003,#NaN
2.480048e+003,#NaN
2.492583e+003,#NaN
2.505118e+003,#NaN
2.517654e+003,#NaN
2.530189e+003,#NaN
2.542724e+003,#NaN
2.555259e+003,#NaN
2.567794e+003,#NaN
2.580330e+003,#NaN
2.592865e+003,#NaN
2.605400e+003,#NaN
2.617936e+003,#NaN
2.630471e+003,#NaN
2.643006e+003,#NaN
2.655541e+003,#NaN
2.668076e+003,#NaN
2.680612e+003,#NaN
2.693147e+003,#NaN
2.705682e+003,#NaN
2.718217e+003,#NaN
2.730753e+003,#NaN
2.743288e+003,#NaN
2.755823e+003,#NaN
2.768358e+003,#NaN
2.780894e+003,#NaN
2.793429e+003,#NaN
2.805964e+003,#NaN
2.818499e+003,#NaN
2.831034e+003,#NaN
2.843570e+003,#NaN
2.856105e+003,#NaN
2.868640e+003,#NaN
2.881175e+003,#NaN
2.893711e+003,#NaN
2.906246e+003,#NaN
2.918781e+003,#NaN
2.931316e+003,#NaN
2.943852e+003,#NaN
2.956387e+003,#NaN
2.968922e+003,#NaN
2.981457e+003,#NaN
2.993992e+003,#NaN
3.006528e+003,#NaN
3.019063e+003,#NaN
3.031598e+003,#NaN
3.044134e+003,#NaN
3.056669e+003,#NaN
3.069204e+003,#NaN
3.081739e+003,#NaN
3.094274e+003,#NaN
3.106810e+003,#NaN
3.119345e+003,#NaN
3.131880e+003,#NaN
3.144415e+003,#NaN
3.156950e+003,#NaN
3.169486e+003,#NaN
3.182021e+003,#NaN
3.194556e+003,#NaN
3.207092e+003,#NaN
3.219627e+003,#NaN
3.232162e+003,#NaN
3.244697e+003,#NaN
3.257232e+003,#NaN
3.269768e+003,#NaN
3.282303e+003,#NaN
3.294838e+003,#NaN
3.307373e+003,#NaN
3.319909e+003,#NaN
3.332444e+003,#NaN
3.344979e+003,#NaN
3.357514e+003,#NaN
3.370050e+003,#NaN
3.382585e+003,#NaN
3.395120e+003,#NaN
3.407655e+003,#NaN
3.420190e+003,#NaN
3.432726e+003,#NaN
3.445261e+003,#NaN
3.457796e+003,#NaN
3.470332e+003,#NaN
3.482867e+003,#NaN
3.495402e+003,#NaN
3.507937e+003,#NaN
3.520472e+003,#NaN
3.533008e+003,#NaN
3.545543e+003,#NaN
3.558078e+003,#NaN
3.570613e+003,#NaN
3.583148e+003,#NaN
3.595684e+003,#NaN
3.608219e+003,#NaN
3.620754e+003,#NaN
3.633290e+003,#NaN
3.645825e+003,#NaN
3.658360e+003,#NaN
3.670895e+003,#NaN
3.683430e+003,#NaN
3.695966e+003,#NaN
3.708501e+003,#NaN
3.721036e+003,#NaN
3.733571e+003,#NaN
3.746107e+003,#NaN
3.758642e+003,#NaN
3.771177e+003,#NaN
3.783712e+003,#NaN
3.796248e+003,#NaN
3.808783e+003,#NaN
3.821318e+003,#NaN
3.833853e+003,#NaN
3.846388e+003,#NaN
3.858924e+003,#NaN
3.871459e+003,#NaN
3.883994e+003,#NaN
3.896529e+003,#NaN
3.909065e+003,#NaN
3.921600e+003,#NaN
3.934135e+003,#NaN
3.946670e+003,#NaN
3.959206e+003,#NaN
3.971741e+003,#NaN
3.984276e+003,#NaN
3.996811e+003,#NaN
4.000668e+003,0.000000e+000